Spektrum aufgenommen für  MESS   vom Mittwoch, 24. März 2021 um  14:43
Start=9000; Stop=3000; Step=5; Delay=250
Wellenlänge [Ä]  	Meßwert [mV]  
5420,000000	0,022589
5421,000000	0,020147
5422,000000	0,020147
5423,000000	0,018315
5424,000000	0,019536
5425,000000	0,021368
5426,000000	0,019536
5427,000000	0,020147
5428,000000	0,019536
5429,000000	0,020757
5430,000000	0,023810
5431,000000	0,020147
5432,000000	0,021368
5433,000000	0,034188
5434,000000	0,051282
5435,000000	0,087912
5436,000000	0,143468
5437,000000	0,229548
5438,000000	0,348344
5439,000000	0,482224
5440,000000	0,634310
5441,000000	0,799145
5442,000000	0,956044
5443,000000	1,126374
5444,000000	1,283883
5445,000000	1,449328
5446,000000	1,616606
5447,000000	1,785104
5448,000000	1,958486
5449,000000	2,130037
5450,000000	2,296703
5451,000000	2,455433
5452,000000	2,614164
5453,000000	2,786935
5454,000000	2,938950
5455,000000	3,089744
5456,000000	3,212454
5457,000000	3,325397
5458,000000	3,394383
5459,000000	3,416361
5460,000000	3,382784
5461,000000	3,307692
5462,000000	3,195360
5463,000000	3,050061
5464,000000	2,898657
5465,000000	2,738095
5466,000000	2,575702
5467,000000	2,415140
5468,000000	2,258852
5469,000000	2,097680
5470,000000	1,935897
5471,000000	1,769231
5472,000000	1,605617
5473,000000	1,443223
5474,000000	1,282051
5475,000000	1,123932
5476,000000	0,962149
5477,000000	0,806471
5478,000000	0,656899
5479,000000	0,514042
5480,000000	0,383394
5481,000000	0,266789
5482,000000	0,171551
5483,000000	0,099512
5484,000000	0,050061
5485,000000	0,036020
5486,000000	0,027473
5487,000000	0,017705
5488,000000	0,029304
5489,000000	0,018926
5490,000000	0,017381
