Spektrum aufgenommen für  MESS   vom Mittwoch, 24. März 2021 um  14:53
Start=9000; Stop=3000; Step=5; Delay=250
Wellenlänge [Ä]  	Meßwert [mV]  
5400,000000	0,019536
5401,000000	0,023810
5402,000000	0,017705
5403,000000	0,025031
5404,000000	0,020147
5405,000000	0,018926
5406,000000	0,020757
5407,000000	0,017705
5408,000000	0,017094
5409,000000	0,021978
5410,000000	0,020147
5411,000000	0,025031
5412,000000	0,029304
5413,000000	0,037241
5414,000000	0,053114
5415,000000	0,078755
5416,000000	0,110501
5417,000000	0,153236
5418,000000	0,198413
5419,000000	0,242979
5420,000000	0,287546
5421,000000	0,336996
5422,000000	0,385836
5423,000000	0,436508
5424,000000	0,483516
5425,000000	0,535409
5426,000000	0,591575
5427,000000	0,642247
5428,000000	0,691697
5429,000000	0,752137
5430,000000	0,805861
5431,000000	0,857143
5432,000000	0,913919
5433,000000	0,968254
5434,000000	1,028083
5435,000000	1,082418
5436,000000	1,136752
5437,000000	1,192308
5438,000000	1,249084
5439,000000	1,304029
5440,000000	1,361416
5441,000000	1,422466
5442,000000	1,474359
5443,000000	1,531746
5444,000000	1,586081
5445,000000	1,637363
5446,000000	1,687424
5447,000000	1,741758
5448,000000	1,796093
5449,000000	1,849817
5450,000000	1,889499
5451,000000	1,935287
5452,000000	1,976801
5453,000000	2,023810
5454,000000	2,063492
5455,000000	2,095849
5456,000000	2,128816
5457,000000	2,152015
5458,000000	2,165446
5459,000000	2,169719
5460,000000	2,163614
5461,000000	2,142247
5462,000000	2,110501
5463,000000	2,075092
5464,000000	2,034799
5465,000000	1,990842
5466,000000	1,943834
5467,000000	1,897436
5468,000000	1,853480
5469,000000	1,800977
5470,000000	1,752747
5471,000000	1,700244
5472,000000	1,655067
5473,000000	1,597070
5474,000000	1,548230
5475,000000	1,498169
5476,000000	1,445665
5477,000000	1,390720
5478,000000	1,336386
5479,000000	1,277167
5480,000000	1,230159
5481,000000	1,172161
5482,000000	1,125763
5483,000000	1,064103
5484,000000	1,002442
5485,000000	0,950549
5486,000000	0,899267
5487,000000	0,846154
5488,000000	0,792430
5489,000000	0,737485
5490,000000	0,687424
5491,000000	0,632479
5492,000000	0,587912
5493,000000	0,537241
5494,000000	0,487790
5495,000000	0,444444
5496,000000	0,403541
5497,000000	0,360806
5498,000000	0,319902
5499,000000	0,277167
5500,000000	0,244200
5501,000000	0,206960
5502,000000	0,170330
5503,000000	0,133700
5504,000000	0,106227
5505,000000	0,077534
5506,000000	0,054335
5507,000000	0,040293
5508,000000	0,025031
5509,000000	0,021978
5510,000000	0,018926
