# 09_12_2020_15_19_22_G6_Probe02_3084
# Messung der Beugung an Spalten und Gittern
# Probe02
# position(Nr) position(mm) Messwerte(V)
0,0000	0,0000	0,0984
1,0000	0,0376	0,1034
2,0000	0,0752	0,1044
3,0000	0,1127	0,1008
4,0000	0,1503	0,0993
5,0000	0,1879	0,1036
6,0000	0,2255	0,1040
7,0000	0,2631	0,0995
8,0000	0,3007	0,0999
9,0000	0,3382	0,1029
10,0000	0,3758	0,1031
11,0000	0,4134	0,1003
12,0000	0,4510	0,0991
13,0000	0,4886	0,1023
14,0000	0,5262	0,1034
15,0000	0,5637	0,0997
16,0000	0,6013	0,0993
17,0000	0,6389	0,1027
18,0000	0,6765	0,1049
19,0000	0,7141	0,1003
20,0000	0,7517	0,0997
21,0000	0,7892	0,1031
22,0000	0,8268	0,1042
23,0000	0,8644	0,1012
24,0000	0,9020	0,0997
25,0000	0,9396	0,1034
26,0000	0,9772	0,1051
27,0000	1,0147	0,1016
28,0000	1,0523	0,1001
29,0000	1,0899	0,1044
30,0000	1,1275	0,1044
31,0000	1,1651	0,1008
32,0000	1,2027	0,1006
33,0000	1,2402	0,1036
34,0000	1,2778	0,1051
35,0000	1,3154	0,1008
36,0000	1,3530	0,1010
37,0000	1,3906	0,1042
38,0000	1,4282	0,1049
39,0000	1,4657	0,1014
40,0000	1,5033	0,0999
41,0000	1,5409	0,1040
42,0000	1,5785	0,1055
43,0000	1,6161	0,1021
44,0000	1,6537	0,1003
45,0000	1,6912	0,1040
46,0000	1,7288	0,1051
47,0000	1,7664	0,1021
48,0000	1,8040	0,1012
49,0000	1,8416	0,1051
50,0000	1,8792	0,1061
51,0000	1,9167	0,1027
52,0000	1,9543	0,1014
53,0000	1,9919	0,1055
54,0000	2,0295	0,1057
55,0000	2,0671	0,1023
56,0000	2,1046	0,1012
57,0000	2,1422	0,1053
58,0000	2,1798	0,1061
59,0000	2,2174	0,1021
60,0000	2,2550	0,1014
61,0000	2,2926	0,1042
62,0000	2,3301	0,1055
63,0000	2,3677	0,1019
64,0000	2,4053	0,1003
65,0000	2,4429	0,1044
66,0000	2,4805	0,1057
67,0000	2,5181	0,1012
68,0000	2,5556	0,1001
69,0000	2,5932	0,1046
70,0000	2,6308	0,1042
71,0000	2,6684	0,1012
72,0000	2,7060	0,1003
73,0000	2,7436	0,1038
74,0000	2,7811	0,1049
75,0000	2,8187	0,1003
76,0000	2,8563	0,0999
77,0000	2,8939	0,1044
78,0000	2,9315	0,1046
79,0000	2,9691	0,1001
80,0000	3,0066	0,1001
81,0000	3,0442	0,1034
82,0000	3,0818	0,1053
83,0000	3,1194	0,1012
84,0000	3,1570	0,1001
85,0000	3,1946	0,1042
86,0000	3,2321	0,1046
87,0000	3,2697	0,1008
88,0000	3,3073	0,1001
89,0000	3,3449	0,1046
90,0000	3,3825	0,1051
91,0000	3,4201	0,1021
92,0000	3,4576	0,1001
93,0000	3,4952	0,1046
94,0000	3,5328	0,1057
95,0000	3,5704	0,1021
96,0000	3,6080	0,1014
97,0000	3,6456	0,1055
98,0000	3,6831	0,1053
99,0000	3,7207	0,1019
100,0000	3,7583	0,1016
101,0000	3,7959	0,1044
102,0000	3,8335	0,1066
103,0000	3,8711	0,1019
104,0000	3,9086	0,1006
105,0000	3,9462	0,1049
106,0000	3,9838	0,1066
107,0000	4,0214	0,1025
108,0000	4,0590	0,1014
109,0000	4,0965	0,1051
110,0000	4,1341	0,1061
111,0000	4,1717	0,1025
112,0000	4,2093	0,1021
113,0000	4,2469	0,1055
114,0000	4,2845	0,1068
115,0000	4,3220	0,1040
116,0000	4,3596	0,1025
117,0000	4,3972	0,1055
118,0000	4,4348	0,1066
119,0000	4,4724	0,1031
120,0000	4,5100	0,1029
121,0000	4,5475	0,1064
122,0000	4,5851	0,1070
123,0000	4,6227	0,1038
124,0000	4,6603	0,1023
125,0000	4,6979	0,1055
126,0000	4,7355	0,1070
127,0000	4,7730	0,1025
128,0000	4,8106	0,1016
129,0000	4,8482	0,1057
130,0000	4,8858	0,1061
131,0000	4,9234	0,1025
132,0000	4,9610	0,1016
133,0000	4,9985	0,1057
134,0000	5,0361	0,1064
135,0000	5,0737	0,1027
136,0000	5,1113	0,1016
137,0000	5,1489	0,1055
138,0000	5,1865	0,1064
139,0000	5,2240	0,1027
140,0000	5,2616	0,1012
141,0000	5,2992	0,1053
142,0000	5,3368	0,1064
143,0000	5,3744	0,1021
144,0000	5,4120	0,1014
145,0000	5,4495	0,1055
146,0000	5,4871	0,1064
147,0000	5,5247	0,1025
148,0000	5,5623	0,1010
149,0000	5,5999	0,1061
150,0000	5,6375	0,1057
151,0000	5,6750	0,1021
152,0000	5,7126	0,1016
153,0000	5,7502	0,1049
154,0000	5,7878	0,1053
155,0000	5,8254	0,1014
156,0000	5,8630	0,1008
157,0000	5,9005	0,1044
158,0000	5,9381	0,1049
159,0000	5,9757	0,1003
160,0000	6,0133	0,0993
161,0000	6,0509	0,1038
162,0000	6,0884	0,1046
163,0000	6,1260	0,1010
164,0000	6,1636	0,0982
165,0000	6,2012	0,1031
166,0000	6,2388	0,1038
167,0000	6,2764	0,0993
168,0000	6,3139	0,0991
169,0000	6,3515	0,1021
170,0000	6,3891	0,1036
171,0000	6,4267	0,0991
172,0000	6,4643	0,0993
173,0000	6,5019	0,1038
174,0000	6,5394	0,1046
175,0000	6,5770	0,1010
176,0000	6,6146	0,1010
177,0000	6,6522	0,1049
178,0000	6,6898	0,1061
179,0000	6,7274	0,1029
180,0000	6,7649	0,1019
181,0000	6,8025	0,1066
182,0000	6,8401	0,1079
183,0000	6,8777	0,1044
184,0000	6,9153	0,1038
185,0000	6,9529	0,1081
186,0000	6,9904	0,1100
187,0000	7,0280	0,1070
188,0000	7,0656	0,1061
189,0000	7,1032	0,1107
190,0000	7,1408	0,1119
191,0000	7,1784	0,1083
192,0000	7,2159	0,1081
193,0000	7,2535	0,1124
194,0000	7,2911	0,1132
195,0000	7,3287	0,1102
196,0000	7,3663	0,1100
197,0000	7,4039	0,1137
198,0000	7,4414	0,1149
199,0000	7,4790	0,1109
200,0000	7,5166	0,1102
201,0000	7,5542	0,1145
202,0000	7,5918	0,1162
203,0000	7,6294	0,1119
204,0000	7,6669	0,1119
205,0000	7,7045	0,1158
206,0000	7,7421	0,1169
207,0000	7,7797	0,1130
208,0000	7,8173	0,1117
209,0000	7,8549	0,1154
210,0000	7,8924	0,1175
211,0000	7,9300	0,1134
212,0000	7,9676	0,1132
213,0000	8,0052	0,1162
214,0000	8,0428	0,1179
215,0000	8,0803	0,1139
216,0000	8,1179	0,1128
217,0000	8,1555	0,1169
218,0000	8,1931	0,1182
219,0000	8,2307	0,1145
220,0000	8,2683	0,1124
221,0000	8,3058	0,1171
222,0000	8,3434	0,1175
223,0000	8,3810	0,1130
224,0000	8,4186	0,1113
225,0000	8,4562	0,1149
226,0000	8,4938	0,1147
227,0000	8,5313	0,1111
228,0000	8,5689	0,1083
229,0000	8,6065	0,1113
230,0000	8,6441	0,1115
231,0000	8,6817	0,1068
232,0000	8,7193	0,1053
233,0000	8,7568	0,1085
234,0000	8,7944	0,1085
235,0000	8,8320	0,1051
236,0000	8,8696	0,1023
237,0000	8,9072	0,1059
238,0000	8,9448	0,1068
239,0000	8,9823	0,1021
240,0000	9,0199	0,1012
241,0000	9,0575	0,1040
242,0000	9,0951	0,1046
243,0000	9,1327	0,1016
244,0000	9,1703	0,0997
245,0000	9,2078	0,1027
246,0000	9,2454	0,1049
247,0000	9,2830	0,1012
248,0000	9,3206	0,0986
249,0000	9,3582	0,1036
250,0000	9,3958	0,1040
251,0000	9,4333	0,1003
252,0000	9,4709	0,0991
253,0000	9,5085	0,1027
254,0000	9,5461	0,1044
255,0000	9,5837	0,1003
256,0000	9,6213	0,0988
257,0000	9,6588	0,1025
258,0000	9,6964	0,1034
259,0000	9,7340	0,1001
260,0000	9,7716	0,0986
261,0000	9,8092	0,1029
262,0000	9,8468	0,1036
263,0000	9,8843	0,0999
264,0000	9,9219	0,0988
265,0000	9,9595	0,1021
266,0000	9,9971	0,1027
267,0000	10,0347	0,0986
268,0000	10,0723	0,0971
269,0000	10,1098	0,1014
270,0000	10,1474	0,1025
271,0000	10,1850	0,0982
272,0000	10,2226	0,0973
273,0000	10,2602	0,1003
274,0000	10,2977	0,1008
275,0000	10,3353	0,0976
276,0000	10,3729	0,0967
277,0000	10,4105	0,1001
278,0000	10,4481	0,1014
279,0000	10,4857	0,0969
280,0000	10,5232	0,0965
281,0000	10,5608	0,0995
282,0000	10,5984	0,1003
283,0000	10,6360	0,0969
284,0000	10,6736	0,0954
285,0000	10,7112	0,0991
286,0000	10,7487	0,0999
287,0000	10,7863	0,0961
288,0000	10,8239	0,0958
289,0000	10,8615	0,0986
290,0000	10,8991	0,1003
291,0000	10,9367	0,0961
292,0000	10,9742	0,0952
293,0000	11,0118	0,0991
294,0000	11,0494	0,1003
295,0000	11,0870	0,0958
296,0000	11,1246	0,0948
297,0000	11,1622	0,0988
298,0000	11,1997	0,0997
299,0000	11,2373	0,0961
300,0000	11,2749	0,0952
301,0000	11,3125	0,0980
302,0000	11,3501	0,0995
303,0000	11,3877	0,0954
304,0000	11,4252	0,0948
305,0000	11,4628	0,0993
306,0000	11,5004	0,0991
307,0000	11,5380	0,0958
308,0000	11,5756	0,0943
309,0000	11,6132	0,0988
310,0000	11,6507	0,0999
311,0000	11,6883	0,0961
312,0000	11,7259	0,0946
313,0000	11,7635	0,0986
314,0000	11,8011	0,0995
315,0000	11,8387	0,0963
316,0000	11,8762	0,0943
317,0000	11,9138	0,0984
318,0000	11,9514	0,0999
319,0000	11,9890	0,0963
320,0000	12,0266	0,0952
321,0000	12,0642	0,0982
322,0000	12,1017	0,0995
323,0000	12,1393	0,0963
324,0000	12,1769	0,0941
325,0000	12,2145	0,0991
326,0000	12,2521	0,0997
327,0000	12,2896	0,0965
328,0000	12,3272	0,0950
329,0000	12,3648	0,0986
330,0000	12,4024	0,1001
331,0000	12,4400	0,0956
332,0000	12,4776	0,0946
333,0000	12,5151	0,0991
334,0000	12,5527	0,0997
335,0000	12,5903	0,0958
336,0000	12,6279	0,0958
337,0000	12,6655	0,0986
338,0000	12,7031	0,0993
339,0000	12,7406	0,0956
340,0000	12,7782	0,0954
341,0000	12,8158	0,0988
342,0000	12,8534	0,0997
343,0000	12,8910	0,0963
344,0000	12,9286	0,0954
345,0000	12,9661	0,0997
346,0000	13,0037	0,0999
347,0000	13,0413	0,0965
348,0000	13,0789	0,0954
349,0000	13,1165	0,0993
350,0000	13,1541	0,1003
351,0000	13,1916	0,0961
352,0000	13,2292	0,0950
353,0000	13,2668	0,0991
354,0000	13,3044	0,1003
355,0000	13,3420	0,0969
356,0000	13,3796	0,0958
357,0000	13,4171	0,0993
358,0000	13,4547	0,0999
359,0000	13,4923	0,0976
360,0000	13,5299	0,0956
361,0000	13,5675	0,0997
362,0000	13,6051	0,0999
363,0000	13,6426	0,0967
364,0000	13,6802	0,0969
365,0000	13,7178	0,0999
366,0000	13,7554	0,1003
367,0000	13,7930	0,0967
368,0000	13,8306	0,0961
369,0000	13,8681	0,0999
370,0000	13,9057	0,1014
371,0000	13,9433	0,0965
372,0000	13,9809	0,0954
373,0000	14,0185	0,0997
374,0000	14,0561	0,1010
375,0000	14,0936	0,0969
376,0000	14,1312	0,0961
377,0000	14,1688	0,1001
378,0000	14,2064	0,1014
379,0000	14,2440	0,0973
380,0000	14,2815	0,0967
381,0000	14,3191	0,1001
382,0000	14,3567	0,1014
383,0000	14,3943	0,0971
384,0000	14,4319	0,0967
385,0000	14,4695	0,0999
386,0000	14,5070	0,1008
387,0000	14,5446	0,0976
388,0000	14,5822	0,0969
389,0000	14,6198	0,0997
390,0000	14,6574	0,1012
391,0000	14,6950	0,0971
392,0000	14,7325	0,0952
393,0000	14,7701	0,0997
394,0000	14,8077	0,1014
395,0000	14,8453	0,0969
396,0000	14,8829	0,0958
397,0000	14,9205	0,1010
398,0000	14,9580	0,1008
399,0000	14,9956	0,0965
400,0000	15,0332	0,0952
401,0000	15,0708	0,0999
402,0000	15,1084	0,1003
403,0000	15,1460	0,0973
404,0000	15,1835	0,0956
405,0000	15,2211	0,0995
406,0000	15,2587	0,1012
407,0000	15,2963	0,0965
408,0000	15,3339	0,0952
409,0000	15,3715	0,0993
410,0000	15,4090	0,1010
411,0000	15,4466	0,0965
412,0000	15,4842	0,0956
413,0000	15,5218	0,0991
414,0000	15,5594	0,1001
415,0000	15,5970	0,0963
416,0000	15,6345	0,0958
417,0000	15,6721	0,0993
418,0000	15,7097	0,1003
419,0000	15,7473	0,0971
420,0000	15,7849	0,0954
421,0000	15,8225	0,1001
422,0000	15,8600	0,1006
423,0000	15,8976	0,0971
424,0000	15,9352	0,0965
425,0000	15,9728	0,0993
426,0000	16,0104	0,1003
427,0000	16,0480	0,0969
428,0000	16,0855	0,0954
429,0000	16,1231	0,0999
430,0000	16,1607	0,1001
431,0000	16,1983	0,0967
432,0000	16,2359	0,0956
433,0000	16,2734	0,0993
434,0000	16,3110	0,0999
435,0000	16,3486	0,0961
436,0000	16,3862	0,0958
437,0000	16,4238	0,0993
438,0000	16,4614	0,1008
439,0000	16,4989	0,0958
440,0000	16,5365	0,0948
441,0000	16,5741	0,0993
442,0000	16,6117	0,1001
443,0000	16,6493	0,0956
444,0000	16,6869	0,0954
445,0000	16,7244	0,0982
446,0000	16,7620	0,0999
447,0000	16,7996	0,0958
448,0000	16,8372	0,0948
449,0000	16,8748	0,0993
450,0000	16,9124	0,0999
451,0000	16,9499	0,0963
452,0000	16,9875	0,0946
453,0000	17,0251	0,0988
454,0000	17,0627	0,1001
455,0000	17,1003	0,0958
456,0000	17,1379	0,0954
457,0000	17,1754	0,0988
458,0000	17,2130	0,1006
459,0000	17,2506	0,0954
460,0000	17,2882	0,0948
461,0000	17,3258	0,0988
462,0000	17,3634	0,1001
463,0000	17,4009	0,0956
464,0000	17,4385	0,0952
465,0000	17,4761	0,0984
466,0000	17,5137	0,0988
467,0000	17,5513	0,0958
468,0000	17,5889	0,0950
469,0000	17,6264	0,0982
470,0000	17,6640	0,0993
471,0000	17,7016	0,0956
472,0000	17,7392	0,0946
473,0000	17,7768	0,0982
474,0000	17,8144	0,0995
475,0000	17,8519	0,0961
476,0000	17,8895	0,0943
477,0000	17,9271	0,0984
478,0000	17,9647	0,0997
479,0000	18,0023	0,0963
480,0000	18,0399	0,0946
481,0000	18,0774	0,0988
482,0000	18,1150	0,0986
483,0000	18,1526	0,0961
484,0000	18,1902	0,0937
485,0000	18,2278	0,0984
486,0000	18,2653	0,0991
487,0000	18,3029	0,0961
488,0000	18,3405	0,0946
489,0000	18,3781	0,0984
490,0000	18,4157	0,0995
491,0000	18,4533	0,0956
492,0000	18,4908	0,0943
493,0000	18,5284	0,0991
494,0000	18,5660	0,0995
495,0000	18,6036	0,0963
496,0000	18,6412	0,0946
497,0000	18,6788	0,0986
498,0000	18,7163	0,0999
499,0000	18,7539	0,0961
500,0000	18,7915	0,0952
501,0000	18,8291	0,0988
502,0000	18,8667	0,0999
503,0000	18,9043	0,0958
504,0000	18,9418	0,0948
505,0000	18,9794	0,0993
506,0000	19,0170	0,1006
507,0000	19,0546	0,0965
508,0000	19,0922	0,0956
509,0000	19,1298	0,0991
510,0000	19,1673	0,1008
511,0000	19,2049	0,0969
512,0000	19,2425	0,0958
513,0000	19,2801	0,0995
514,0000	19,3177	0,1003
515,0000	19,3553	0,0969
516,0000	19,3928	0,0952
517,0000	19,4304	0,0999
518,0000	19,4680	0,1006
519,0000	19,5056	0,0976
520,0000	19,5432	0,0963
521,0000	19,5808	0,0999
522,0000	19,6183	0,1012
523,0000	19,6559	0,0967
524,0000	19,6935	0,0965
525,0000	19,7311	0,1006
526,0000	19,7687	0,1012
527,0000	19,8063	0,0971
528,0000	19,8438	0,0961
529,0000	19,8814	0,0997
530,0000	19,9190	0,1016
531,0000	19,9566	0,0980
532,0000	19,9942	0,0969
533,0000	20,0318	0,1001
534,0000	20,0693	0,1023
535,0000	20,1069	0,0982
536,0000	20,1445	0,0971
537,0000	20,1821	0,0997
538,0000	20,2197	0,1016
539,0000	20,2572	0,0982
540,0000	20,2948	0,0963
541,0000	20,3324	0,1014
542,0000	20,3700	0,1019
543,0000	20,4076	0,0980
544,0000	20,4452	0,0971
545,0000	20,4827	0,1010
546,0000	20,5203	0,1019
547,0000	20,5579	0,0980
548,0000	20,5955	0,0969
549,0000	20,6331	0,1014
550,0000	20,6707	0,1027
551,0000	20,7082	0,0988
552,0000	20,7458	0,0967
553,0000	20,7834	0,1016
554,0000	20,8210	0,1027
555,0000	20,8586	0,0982
556,0000	20,8962	0,0973
557,0000	20,9337	0,1012
558,0000	20,9713	0,1021
559,0000	21,0089	0,0984
560,0000	21,0465	0,0986
561,0000	21,0841	0,1008
562,0000	21,1217	0,1025
563,0000	21,1592	0,0982
564,0000	21,1968	0,0982
565,0000	21,2344	0,1016
566,0000	21,2720	0,1027
567,0000	21,3096	0,0988
568,0000	21,3472	0,0978
569,0000	21,3847	0,1016
570,0000	21,4223	0,1025
571,0000	21,4599	0,0988
572,0000	21,4975	0,0976
573,0000	21,5351	0,1012
574,0000	21,5727	0,1021
575,0000	21,6102	0,0984
576,0000	21,6478	0,0976
577,0000	21,6854	0,1010
578,0000	21,7230	0,1021
579,0000	21,7606	0,0980
580,0000	21,7982	0,0965
581,0000	21,8357	0,1008
582,0000	21,8733	0,1019
583,0000	21,9109	0,0980
584,0000	21,9485	0,0971
585,0000	21,9861	0,1001
586,0000	22,0237	0,1008
587,0000	22,0612	0,0973
588,0000	22,0988	0,0958
589,0000	22,1364	0,1006
590,0000	22,1740	0,1014
591,0000	22,2116	0,0967
592,0000	22,2491	0,0958
593,0000	22,2867	0,1001
594,0000	22,3243	0,1008
595,0000	22,3619	0,0973
596,0000	22,3995	0,0961
597,0000	22,4371	0,0993
598,0000	22,4746	0,1006
599,0000	22,5122	0,0969
600,0000	22,5498	0,0965
601,0000	22,5874	0,0988
602,0000	22,6250	0,0995
603,0000	22,6626	0,0967
604,0000	22,7001	0,0961
605,0000	22,7377	0,0993
606,0000	22,7753	0,1006
607,0000	22,8129	0,0971
608,0000	22,8505	0,0952
609,0000	22,8881	0,0997
610,0000	22,9256	0,0995
611,0000	22,9632	0,0963
612,0000	23,0008	0,0956
613,0000	23,0384	0,0986
614,0000	23,0760	0,1003
615,0000	23,1136	0,0967
616,0000	23,1511	0,0950
617,0000	23,1887	0,0991
618,0000	23,2263	0,0993
619,0000	23,2639	0,0961
620,0000	23,3015	0,0954
621,0000	23,3391	0,0984
622,0000	23,3766	0,0997
623,0000	23,4142	0,0965
624,0000	23,4518	0,0950
625,0000	23,4894	0,0988
626,0000	23,5270	0,0991
627,0000	23,5646	0,0958
628,0000	23,6021	0,0950
629,0000	23,6397	0,0982
630,0000	23,6773	0,0993
631,0000	23,7149	0,0965
632,0000	23,7525	0,0943
633,0000	23,7901	0,0986
634,0000	23,8276	0,1001
635,0000	23,8652	0,0956
636,0000	23,9028	0,0950
637,0000	23,9404	0,0988
638,0000	23,9780	0,0997
639,0000	24,0156	0,0965
640,0000	24,0531	0,0948
641,0000	24,0907	0,0988
642,0000	24,1283	0,1003
643,0000	24,1659	0,0963
644,0000	24,2035	0,0946
645,0000	24,2410	0,0988
646,0000	24,2786	0,0993
647,0000	24,3162	0,0961
648,0000	24,3538	0,0954
649,0000	24,3914	0,0993
650,0000	24,4290	0,1003
651,0000	24,4665	0,0967
652,0000	24,5041	0,0950
653,0000	24,5417	0,0999
654,0000	24,5793	0,1006
655,0000	24,6169	0,0961
656,0000	24,6545	0,0956
657,0000	24,6920	0,0997
658,0000	24,7296	0,1001
659,0000	24,7672	0,0971
660,0000	24,8048	0,0965
661,0000	24,8424	0,0993
662,0000	24,8800	0,1010
663,0000	24,9175	0,0973
664,0000	24,9551	0,0961
665,0000	24,9927	0,0995
666,0000	25,0303	0,1012
667,0000	25,0679	0,0976
668,0000	25,1055	0,0969
669,0000	25,1430	0,1001
670,0000	25,1806	0,1021
671,0000	25,2182	0,0984
672,0000	25,2558	0,0967
673,0000	25,2934	0,1012
674,0000	25,3310	0,1025
675,0000	25,3685	0,0986
676,0000	25,4061	0,0973
677,0000	25,4437	0,1008
678,0000	25,4813	0,1023
679,0000	25,5189	0,0986
680,0000	25,5565	0,0973
681,0000	25,5940	0,1014
682,0000	25,6316	0,1025
683,0000	25,6692	0,0995
684,0000	25,7068	0,0973
685,0000	25,7444	0,1023
686,0000	25,7820	0,1023
687,0000	25,8195	0,0988
688,0000	25,8571	0,0982
689,0000	25,8947	0,1016
690,0000	25,9323	0,1034
691,0000	25,9699	0,1003
692,0000	26,0075	0,0980
693,0000	26,0450	0,1029
694,0000	26,0826	0,1031
695,0000	26,1202	0,1001
696,0000	26,1578	0,0995
697,0000	26,1954	0,1036
698,0000	26,2329	0,1038
699,0000	26,2705	0,1006
700,0000	26,3081	0,0988
701,0000	26,3457	0,1021
702,0000	26,3833	0,1036
703,0000	26,4209	0,0997
704,0000	26,4584	0,0993
705,0000	26,4960	0,1027
706,0000	26,5336	0,1040
707,0000	26,5712	0,1001
708,0000	26,6088	0,0986
709,0000	26,6464	0,1025
710,0000	26,6839	0,1038
711,0000	26,7215	0,1001
712,0000	26,7591	0,0995
713,0000	26,7967	0,1021
714,0000	26,8343	0,1040
715,0000	26,8719	0,1003
716,0000	26,9094	0,0991
717,0000	26,9470	0,1027
718,0000	26,9846	0,1040
719,0000	27,0222	0,1006
720,0000	27,0598	0,0995
721,0000	27,0974	0,1029
722,0000	27,1349	0,1042
723,0000	27,1725	0,1003
724,0000	27,2101	0,0993
725,0000	27,2477	0,1029
726,0000	27,2853	0,1038
727,0000	27,3229	0,1003
728,0000	27,3604	0,0995
729,0000	27,3980	0,1021
730,0000	27,4356	0,1038
731,0000	27,4732	0,1001
732,0000	27,5108	0,0991
733,0000	27,5484	0,1023
734,0000	27,5859	0,1044
735,0000	27,6235	0,0997
736,0000	27,6611	0,0986
737,0000	27,6987	0,1023
738,0000	27,7363	0,1031
739,0000	27,7739	0,0995
740,0000	27,8114	0,0980
741,0000	27,8490	0,1010
742,0000	27,8866	0,1023
743,0000	27,9242	0,0997
744,0000	27,9618	0,0982
745,0000	27,9994	0,1014
746,0000	28,0369	0,1027
747,0000	28,0745	0,0982
748,0000	28,1121	0,0973
749,0000	28,1497	0,1010
750,0000	28,1873	0,1021
751,0000	28,2249	0,0986
752,0000	28,2624	0,0971
753,0000	28,3000	0,1010
754,0000	28,3376	0,1019
755,0000	28,3752	0,0984
756,0000	28,4128	0,0971
757,0000	28,4503	0,1006
758,0000	28,4879	0,1014
759,0000	28,5255	0,0978
760,0000	28,5631	0,0969
761,0000	28,6007	0,0999
762,0000	28,6383	0,1014
763,0000	28,6758	0,0980
764,0000	28,7134	0,0963
765,0000	28,7510	0,1003
766,0000	28,7886	0,1012
767,0000	28,8262	0,0969
768,0000	28,8638	0,0958
769,0000	28,9013	0,0995
770,0000	28,9389	0,1006
771,0000	28,9765	0,0971
772,0000	29,0141	0,0952
773,0000	29,0517	0,0991
774,0000	29,0893	0,1003
775,0000	29,1268	0,0956
776,0000	29,1644	0,0958
777,0000	29,2020	0,0995
778,0000	29,2396	0,1003
779,0000	29,2772	0,0965
780,0000	29,3148	0,0946
781,0000	29,3523	0,0978
782,0000	29,3899	0,0999
783,0000	29,4275	0,0961
784,0000	29,4651	0,0948
785,0000	29,5027	0,0982
786,0000	29,5403	0,1003
787,0000	29,5778	0,0958
788,0000	29,6154	0,0946
789,0000	29,6530	0,0986
790,0000	29,6906	0,0995
791,0000	29,7282	0,0956
792,0000	29,7658	0,0943
793,0000	29,8033	0,0984
794,0000	29,8409	0,0999
795,0000	29,8785	0,0956
796,0000	29,9161	0,0950
797,0000	29,9537	0,0986
798,0000	29,9913	0,0999
799,0000	30,0288	0,0961
800,0000	30,0664	0,0950
801,0000	30,1040	0,0980
802,0000	30,1416	0,0995
803,0000	30,1792	0,0961
804,0000	30,2168	0,0946
805,0000	30,2543	0,0991
806,0000	30,2919	0,1001
807,0000	30,3295	0,0961
808,0000	30,3671	0,0958
809,0000	30,4047	0,0993
810,0000	30,4422	0,1006
811,0000	30,4798	0,0967
812,0000	30,5174	0,0956
813,0000	30,5550	0,0995
814,0000	30,5926	0,1001
815,0000	30,6302	0,0969
816,0000	30,6677	0,0954
817,0000	30,7053	0,0991
818,0000	30,7429	0,1012
819,0000	30,7805	0,0967
820,0000	30,8181	0,0961
821,0000	30,8557	0,0999
822,0000	30,8932	0,1016
823,0000	30,9308	0,0976
824,0000	30,9684	0,0971
825,0000	31,0060	0,1006
826,0000	31,0436	0,1019
827,0000	31,0812	0,0986
828,0000	31,1187	0,0973
829,0000	31,1563	0,1014
830,0000	31,1939	0,1027
831,0000	31,2315	0,0986
832,0000	31,2691	0,0980
833,0000	31,3067	0,1012
834,0000	31,3442	0,1025
835,0000	31,3818	0,0991
836,0000	31,4194	0,0984
837,0000	31,4570	0,1027
838,0000	31,4946	0,1040
839,0000	31,5322	0,1001
840,0000	31,5697	0,0993
841,0000	31,6073	0,1031
842,0000	31,6449	0,1042
843,0000	31,6825	0,1010
844,0000	31,7201	0,0993
845,0000	31,7577	0,1031
846,0000	31,7952	0,1046
847,0000	31,8328	0,1008
848,0000	31,8704	0,0997
849,0000	31,9080	0,1031
850,0000	31,9456	0,1055
851,0000	31,9832	0,1014
852,0000	32,0207	0,0999
853,0000	32,0583	0,1036
854,0000	32,0959	0,1051
855,0000	32,1335	0,1016
856,0000	32,1711	0,0999
857,0000	32,2087	0,1042
858,0000	32,2462	0,1049
859,0000	32,2838	0,1014
860,0000	32,3214	0,1001
861,0000	32,3590	0,1040
862,0000	32,3966	0,1055
863,0000	32,4341	0,1012
864,0000	32,4717	0,1001
865,0000	32,5093	0,1038
866,0000	32,5469	0,1053
867,0000	32,5845	0,1003
868,0000	32,6221	0,0993
869,0000	32,6596	0,1031
870,0000	32,6972	0,1051
871,0000	32,7348	0,0997
872,0000	32,7724	0,0993
873,0000	32,8100	0,1027
874,0000	32,8476	0,1040
875,0000	32,8851	0,1010
876,0000	32,9227	0,0991
877,0000	32,9603	0,1025
878,0000	32,9979	0,1038
879,0000	33,0355	0,0999
880,0000	33,0731	0,0984
881,0000	33,1106	0,1019
882,0000	33,1482	0,1038
883,0000	33,1858	0,1003
884,0000	33,2234	0,0982
885,0000	33,2610	0,1012
886,0000	33,2986	0,1029
887,0000	33,3361	0,0986
888,0000	33,3737	0,0978
889,0000	33,4113	0,1014
890,0000	33,4489	0,1031
891,0000	33,4865	0,0988
892,0000	33,5241	0,0973
893,0000	33,5616	0,1008
894,0000	33,5992	0,1021
895,0000	33,6368	0,0982
896,0000	33,6744	0,0971
897,0000	33,7120	0,1010
898,0000	33,7496	0,1029
899,0000	33,7871	0,0976
900,0000	33,8247	0,0969
901,0000	33,8623	0,0999
902,0000	33,8999	0,1006
903,0000	33,9375	0,0967
904,0000	33,9751	0,0963
905,0000	34,0126	0,0995
906,0000	34,0502	0,1006
907,0000	34,0878	0,0969
908,0000	34,1254	0,0961
909,0000	34,1630	0,0988
910,0000	34,2006	0,1003
911,0000	34,2381	0,0958
912,0000	34,2757	0,0948
913,0000	34,3133	0,0976
914,0000	34,3509	0,0995
915,0000	34,3885	0,0954
916,0000	34,4260	0,0948
917,0000	34,4636	0,0984
918,0000	34,5012	0,0984
919,0000	34,5388	0,0948
920,0000	34,5764	0,0941
921,0000	34,6140	0,0967
922,0000	34,6515	0,0978
923,0000	34,6891	0,0950
924,0000	34,7267	0,0939
925,0000	34,7643	0,0973
926,0000	34,8019	0,0978
927,0000	34,8395	0,0939
928,0000	34,8770	0,0931
929,0000	34,9146	0,0969
930,0000	34,9522	0,0971
931,0000	34,9898	0,0943
932,0000	35,0274	0,0928
933,0000	35,0650	0,0963
934,0000	35,1025	0,0969
935,0000	35,1401	0,0941
936,0000	35,1777	0,0926
937,0000	35,2153	0,0963
938,0000	35,2529	0,0976
939,0000	35,2905	0,0935
940,0000	35,3280	0,0918
941,0000	35,3656	0,0954
942,0000	35,4032	0,0971
943,0000	35,4408	0,0935
944,0000	35,4784	0,0918
945,0000	35,5160	0,0956
946,0000	35,5535	0,0973
947,0000	35,5911	0,0928
948,0000	35,6287	0,0928
949,0000	35,6663	0,0954
950,0000	35,7039	0,0963
951,0000	35,7415	0,0935
952,0000	35,7790	0,0924
953,0000	35,8166	0,0963
954,0000	35,8542	0,0971
955,0000	35,8918	0,0939
956,0000	35,9294	0,0926
957,0000	35,9670	0,0963
958,0000	36,0045	0,0971
959,0000	36,0421	0,0931
960,0000	36,0797	0,0928
961,0000	36,1173	0,0963
962,0000	36,1549	0,0973
963,0000	36,1925	0,0950
964,0000	36,2300	0,0926
965,0000	36,2676	0,0958
966,0000	36,3052	0,0982
967,0000	36,3428	0,0946
968,0000	36,3804	0,0941
969,0000	36,4179	0,0976
970,0000	36,4555	0,0986
971,0000	36,4931	0,0956
972,0000	36,5307	0,0948
973,0000	36,5683	0,0973
974,0000	36,6059	0,0997
975,0000	36,6434	0,0958
976,0000	36,6810	0,0948
977,0000	36,7186	0,0991
978,0000	36,7562	0,1010
979,0000	36,7938	0,0976
980,0000	36,8314	0,0956
981,0000	36,8689	0,1003
982,0000	36,9065	0,1012
983,0000	36,9441	0,0978
984,0000	36,9817	0,0971
985,0000	37,0193	0,1008
986,0000	37,0569	0,1034
987,0000	37,0944	0,0991
988,0000	37,1320	0,0980
989,0000	37,1696	0,1014
990,0000	37,2072	0,1034
991,0000	37,2448	0,0999
992,0000	37,2824	0,0986
993,0000	37,3199	0,1025
994,0000	37,3575	0,1042
995,0000	37,3951	0,1014
996,0000	37,4327	0,0999
997,0000	37,4703	0,1034
998,0000	37,5079	0,1049
999,0000	37,5454	0,1012
1000,0000	37,5830	0,1006
1001,0000	37,6206	0,1044
1002,0000	37,6582	0,1064
1003,0000	37,6958	0,1034
1004,0000	37,7334	0,1012
1005,0000	37,7709	0,1051
1006,0000	37,8085	0,1066
1007,0000	37,8461	0,1031
1008,0000	37,8837	0,1025
1009,0000	37,9213	0,1057
1010,0000	37,9589	0,1068
1011,0000	37,9964	0,1036
1012,0000	38,0340	0,1029
1013,0000	38,0716	0,1074
1014,0000	38,1092	0,1079
1015,0000	38,1468	0,1049
1016,0000	38,1844	0,1036
1017,0000	38,2219	0,1074
1018,0000	38,2595	0,1087
1019,0000	38,2971	0,1055
1020,0000	38,3347	0,1036
1021,0000	38,3723	0,1085
1022,0000	38,4098	0,1091
1023,0000	38,4474	0,1055
1024,0000	38,4850	0,1049
1025,0000	38,5226	0,1085
1026,0000	38,5602	0,1094
1027,0000	38,5978	0,1064
1028,0000	38,6353	0,1051
1029,0000	38,6729	0,1089
1030,0000	38,7105	0,1098
1031,0000	38,7481	0,1059
1032,0000	38,7857	0,1042
1033,0000	38,8233	0,1085
1034,0000	38,8608	0,1091
1035,0000	38,8984	0,1055
1036,0000	38,9360	0,1051
1037,0000	38,9736	0,1085
1038,0000	39,0112	0,1100
1039,0000	39,0488	0,1057
1040,0000	39,0863	0,1051
1041,0000	39,1239	0,1083
1042,0000	39,1615	0,1098
1043,0000	39,1991	0,1064
1044,0000	39,2367	0,1049
1045,0000	39,2743	0,1081
1046,0000	39,3118	0,1094
1047,0000	39,3494	0,1061
1048,0000	39,3870	0,1040
1049,0000	39,4246	0,1072
1050,0000	39,4622	0,1085
1051,0000	39,4998	0,1057
1052,0000	39,5373	0,1036
1053,0000	39,5749	0,1064
1054,0000	39,6125	0,1089
1055,0000	39,6501	0,1040
1056,0000	39,6877	0,1021
1057,0000	39,7253	0,1064
1058,0000	39,7628	0,1076
1059,0000	39,8004	0,1040
1060,0000	39,8380	0,1016
1061,0000	39,8756	0,1046
1062,0000	39,9132	0,1072
1063,0000	39,9508	0,1021
1064,0000	39,9883	0,1012
1065,0000	40,0259	0,1038
1066,0000	40,0635	0,1061
1067,0000	40,1011	0,1016
1068,0000	40,1387	0,1001
1069,0000	40,1763	0,1038
1070,0000	40,2138	0,1051
1071,0000	40,2514	0,1003
1072,0000	40,2890	0,0986
1073,0000	40,3266	0,1023
1074,0000	40,3642	0,1049
1075,0000	40,4017	0,1003
1076,0000	40,4393	0,0978
1077,0000	40,4769	0,1023
1078,0000	40,5145	0,1027
1079,0000	40,5521	0,0991
1080,0000	40,5897	0,0973
1081,0000	40,6272	0,1010
1082,0000	40,6648	0,1021
1083,0000	40,7024	0,0984
1084,0000	40,7400	0,0961
1085,0000	40,7776	0,1010
1086,0000	40,8152	0,1021
1087,0000	40,8527	0,0980
1088,0000	40,8903	0,0967
1089,0000	40,9279	0,0997
1090,0000	40,9655	0,1014
1091,0000	41,0031	0,0967
1092,0000	41,0407	0,0961
1093,0000	41,0782	0,0995
1094,0000	41,1158	0,1006
1095,0000	41,1534	0,0973
1096,0000	41,1910	0,0963
1097,0000	41,2286	0,0991
1098,0000	41,2662	0,1014
1099,0000	41,3037	0,0969
1100,0000	41,3413	0,0952
1101,0000	41,3789	0,0993
1102,0000	41,4165	0,1006
1103,0000	41,4541	0,0978
1104,0000	41,4917	0,0958
1105,0000	41,5292	0,0999
1106,0000	41,5668	0,1016
1107,0000	41,6044	0,0978
1108,0000	41,6420	0,0965
1109,0000	41,6796	0,1012
1110,0000	41,7172	0,1021
1111,0000	41,7547	0,0982
1112,0000	41,7923	0,0969
1113,0000	41,8299	0,1014
1114,0000	41,8675	0,1023
1115,0000	41,9051	0,0988
1116,0000	41,9427	0,0971
1117,0000	41,9802	0,1023
1118,0000	42,0178	0,1034
1119,0000	42,0554	0,1006
1120,0000	42,0930	0,0997
1121,0000	42,1306	0,1036
1122,0000	42,1682	0,1051
1123,0000	42,2057	0,1021
1124,0000	42,2433	0,1012
1125,0000	42,2809	0,1049
1126,0000	42,3185	0,1072
1127,0000	42,3561	0,1046
1128,0000	42,3936	0,1027
1129,0000	42,4312	0,1070
1130,0000	42,4688	0,1081
1131,0000	42,5064	0,1053
1132,0000	42,5440	0,1046
1133,0000	42,5816	0,1085
1134,0000	42,6191	0,1102
1135,0000	42,6567	0,1074
1136,0000	42,6943	0,1070
1137,0000	42,7319	0,1098
1138,0000	42,7695	0,1124
1139,0000	42,8071	0,1087
1140,0000	42,8446	0,1087
1141,0000	42,8822	0,1124
1142,0000	42,9198	0,1147
1143,0000	42,9574	0,1119
1144,0000	42,9950	0,1115
1145,0000	43,0326	0,1156
1146,0000	43,0701	0,1175
1147,0000	43,1077	0,1147
1148,0000	43,1453	0,1139
1149,0000	43,1829	0,1182
1150,0000	43,2205	0,1197
1151,0000	43,2581	0,1162
1152,0000	43,2956	0,1152
1153,0000	43,3332	0,1190
1154,0000	43,3708	0,1216
1155,0000	43,4084	0,1184
1156,0000	43,4460	0,1173
1157,0000	43,4836	0,1218
1158,0000	43,5211	0,1242
1159,0000	43,5587	0,1199
1160,0000	43,5963	0,1195
1161,0000	43,6339	0,1229
1162,0000	43,6715	0,1244
1163,0000	43,7091	0,1203
1164,0000	43,7466	0,1188
1165,0000	43,7842	0,1235
1166,0000	43,8218	0,1250
1167,0000	43,8594	0,1205
1168,0000	43,8970	0,1195
1169,0000	43,9346	0,1233
1170,0000	43,9721	0,1240
1171,0000	44,0097	0,1201
1172,0000	44,0473	0,1186
1173,0000	44,0849	0,1218
1174,0000	44,1225	0,1229
1175,0000	44,1601	0,1197
1176,0000	44,1976	0,1175
1177,0000	44,2352	0,1197
1178,0000	44,2728	0,1214
1179,0000	44,3104	0,1184
1180,0000	44,3480	0,1167
1181,0000	44,3855	0,1197
1182,0000	44,4231	0,1207
1183,0000	44,4607	0,1167
1184,0000	44,4983	0,1143
1185,0000	44,5359	0,1184
1186,0000	44,5735	0,1188
1187,0000	44,6110	0,1147
1188,0000	44,6486	0,1128
1189,0000	44,6862	0,1167
1190,0000	44,7238	0,1171
1191,0000	44,7614	0,1137
1192,0000	44,7990	0,1122
1193,0000	44,8365	0,1143
1194,0000	44,8741	0,1160
1195,0000	44,9117	0,1115
1196,0000	44,9493	0,1098
1197,0000	44,9869	0,1134
1198,0000	45,0245	0,1141
1199,0000	45,0620	0,1104
1200,0000	45,0996	0,1076
1201,0000	45,1372	0,1109
1202,0000	45,1748	0,1117
1203,0000	45,2124	0,1083
1204,0000	45,2500	0,1068
1205,0000	45,2875	0,1102
1206,0000	45,3251	0,1098
1207,0000	45,3627	0,1068
1208,0000	45,4003	0,1046
1209,0000	45,4379	0,1076
1210,0000	45,4755	0,1087
1211,0000	45,5130	0,1046
1212,0000	45,5506	0,1034
1213,0000	45,5882	0,1066
1214,0000	45,6258	0,1068
1215,0000	45,6634	0,1031
1216,0000	45,7010	0,1014
1217,0000	45,7385	0,1044
1218,0000	45,7761	0,1059
1219,0000	45,8137	0,1014
1220,0000	45,8513	0,0999
1221,0000	45,8889	0,1027
1222,0000	45,9265	0,1036
1223,0000	45,9640	0,1010
1224,0000	46,0016	0,0984
1225,0000	46,0392	0,1019
1226,0000	46,0768	0,1029
1227,0000	46,1144	0,0993
1228,0000	46,1520	0,0969
1229,0000	46,1895	0,1003
1230,0000	46,2271	0,1012
1231,0000	46,2647	0,0978
1232,0000	46,3023	0,0963
1233,0000	46,3399	0,0993
1234,0000	46,3775	0,1008
1235,0000	46,4150	0,0967
1236,0000	46,4526	0,0948
1237,0000	46,4902	0,0980
1238,0000	46,5278	0,0995
1239,0000	46,5654	0,0956
1240,0000	46,6029	0,0937
1241,0000	46,6405	0,0969
1242,0000	46,6781	0,0986
1243,0000	46,7157	0,0948
1244,0000	46,7533	0,0933
1245,0000	46,7909	0,0958
1246,0000	46,8284	0,0980
1247,0000	46,8660	0,0946
1248,0000	46,9036	0,0931
1249,0000	46,9412	0,0963
1250,0000	46,9788	0,0969
1251,0000	47,0164	0,0939
1252,0000	47,0539	0,0926
1253,0000	47,0915	0,0963
1254,0000	47,1291	0,0980
1255,0000	47,1667	0,0943
1256,0000	47,2043	0,0931
1257,0000	47,2419	0,0965
1258,0000	47,2794	0,0982
1259,0000	47,3170	0,0954
1260,0000	47,3546	0,0935
1261,0000	47,3922	0,0971
1262,0000	47,4298	0,0993
1263,0000	47,4674	0,0961
1264,0000	47,5049	0,0946
1265,0000	47,5425	0,0984
1266,0000	47,5801	0,0993
1267,0000	47,6177	0,0963
1268,0000	47,6553	0,0954
1269,0000	47,6929	0,0995
1270,0000	47,7304	0,1012
1271,0000	47,7680	0,0986
1272,0000	47,8056	0,0973
1273,0000	47,8432	0,1006
1274,0000	47,8808	0,1034
1275,0000	47,9184	0,0995
1276,0000	47,9559	0,0988
1277,0000	47,9935	0,1027
1278,0000	48,0311	0,1044
1279,0000	48,0687	0,1023
1280,0000	48,1063	0,1008
1281,0000	48,1439	0,1040
1282,0000	48,1814	0,1066
1283,0000	48,2190	0,1044
1284,0000	48,2566	0,1025
1285,0000	48,2942	0,1072
1286,0000	48,3318	0,1096
1287,0000	48,3694	0,1068
1288,0000	48,4069	0,1055
1289,0000	48,4445	0,1102
1290,0000	48,4821	0,1113
1291,0000	48,5197	0,1098
1292,0000	48,5573	0,1083
1293,0000	48,5948	0,1124
1294,0000	48,6324	0,1156
1295,0000	48,6700	0,1124
1296,0000	48,7076	0,1117
1297,0000	48,7452	0,1160
1298,0000	48,7828	0,1182
1299,0000	48,8203	0,1160
1300,0000	48,8579	0,1141
1301,0000	48,8955	0,1184
1302,0000	48,9331	0,1207
1303,0000	48,9707	0,1186
1304,0000	49,0083	0,1173
1305,0000	49,0458	0,1210
1306,0000	49,0834	0,1233
1307,0000	49,1210	0,1205
1308,0000	49,1586	0,1192
1309,0000	49,1962	0,1231
1310,0000	49,2338	0,1261
1311,0000	49,2713	0,1229
1312,0000	49,3089	0,1216
1313,0000	49,3465	0,1259
1314,0000	49,3841	0,1276
1315,0000	49,4217	0,1252
1316,0000	49,4593	0,1240
1317,0000	49,4968	0,1274
1318,0000	49,5344	0,1289
1319,0000	49,5720	0,1261
1320,0000	49,6096	0,1255
1321,0000	49,6472	0,1283
1322,0000	49,6848	0,1308
1323,0000	49,7223	0,1289
1324,0000	49,7599	0,1263
1325,0000	49,7975	0,1295
1326,0000	49,8351	0,1323
1327,0000	49,8727	0,1285
1328,0000	49,9103	0,1274
1329,0000	49,9478	0,1302
1330,0000	49,9854	0,1325
1331,0000	50,0230	0,1298
1332,0000	50,0606	0,1280
1333,0000	50,0982	0,1308
1334,0000	50,1358	0,1332
1335,0000	50,1733	0,1304
1336,0000	50,2109	0,1283
1337,0000	50,2485	0,1313
1338,0000	50,2861	0,1338
1339,0000	50,3237	0,1308
1340,0000	50,3613	0,1287
1341,0000	50,3988	0,1321
1342,0000	50,4364	0,1332
1343,0000	50,4740	0,1287
1344,0000	50,5116	0,1272
1345,0000	50,5492	0,1308
1346,0000	50,5867	0,1315
1347,0000	50,6243	0,1283
1348,0000	50,6619	0,1259
1349,0000	50,6995	0,1293
1350,0000	50,7371	0,1310
1351,0000	50,7747	0,1267
1352,0000	50,8122	0,1252
1353,0000	50,8498	0,1280
1354,0000	50,8874	0,1289
1355,0000	50,9250	0,1252
1356,0000	50,9626	0,1227
1357,0000	51,0002	0,1261
1358,0000	51,0377	0,1270
1359,0000	51,0753	0,1233
1360,0000	51,1129	0,1212
1361,0000	51,1505	0,1235
1362,0000	51,1881	0,1250
1363,0000	51,2257	0,1207
1364,0000	51,2632	0,1182
1365,0000	51,3008	0,1205
1366,0000	51,3384	0,1212
1367,0000	51,3760	0,1188
1368,0000	51,4136	0,1154
1369,0000	51,4512	0,1182
1370,0000	51,4887	0,1186
1371,0000	51,5263	0,1152
1372,0000	51,5639	0,1128
1373,0000	51,6015	0,1152
1374,0000	51,6391	0,1162
1375,0000	51,6767	0,1122
1376,0000	51,7142	0,1109
1377,0000	51,7518	0,1124
1378,0000	51,7894	0,1132
1379,0000	51,8270	0,1096
1380,0000	51,8646	0,1079
1381,0000	51,9022	0,1102
1382,0000	51,9397	0,1107
1383,0000	51,9773	0,1072
1384,0000	52,0149	0,1051
1385,0000	52,0525	0,1072
1386,0000	52,0901	0,1083
1387,0000	52,1277	0,1046
1388,0000	52,1652	0,1016
1389,0000	52,2028	0,1042
1390,0000	52,2404	0,1057
1391,0000	52,2780	0,1019
1392,0000	52,3156	0,1003
1393,0000	52,3532	0,1029
1394,0000	52,3907	0,1042
1395,0000	52,4283	0,1008
1396,0000	52,4659	0,0988
1397,0000	52,5035	0,1012
1398,0000	52,5411	0,1027
1399,0000	52,5786	0,0991
1400,0000	52,6162	0,0973
1401,0000	52,6538	0,1008
1402,0000	52,6914	0,1021
1403,0000	52,7290	0,0988
1404,0000	52,7666	0,0971
1405,0000	52,8041	0,1003
1406,0000	52,8417	0,1025
1407,0000	52,8793	0,0988
1408,0000	52,9169	0,0969
1409,0000	52,9545	0,0999
1410,0000	52,9921	0,1027
1411,0000	53,0296	0,0993
1412,0000	53,0672	0,0988
1413,0000	53,1048	0,1019
1414,0000	53,1424	0,1040
1415,0000	53,1800	0,1012
1416,0000	53,2176	0,0997
1417,0000	53,2551	0,1036
1418,0000	53,2927	0,1061
1419,0000	53,3303	0,1036
1420,0000	53,3679	0,1021
1421,0000	53,4055	0,1066
1422,0000	53,4431	0,1094
1423,0000	53,4806	0,1066
1424,0000	53,5182	0,1057
1425,0000	53,5558	0,1100
1426,0000	53,5934	0,1130
1427,0000	53,6310	0,1107
1428,0000	53,6686	0,1100
1429,0000	53,7061	0,1143
1430,0000	53,7437	0,1173
1431,0000	53,7813	0,1152
1432,0000	53,8189	0,1145
1433,0000	53,8565	0,1197
1434,0000	53,8941	0,1231
1435,0000	53,9316	0,1214
1436,0000	53,9692	0,1212
1437,0000	54,0068	0,1257
1438,0000	54,0444	0,1295
1439,0000	54,0820	0,1276
1440,0000	54,1196	0,1274
1441,0000	54,1571	0,1321
1442,0000	54,1947	0,1353
1443,0000	54,2323	0,1343
1444,0000	54,2699	0,1343
1445,0000	54,3075	0,1388
1446,0000	54,3451	0,1431
1447,0000	54,3826	0,1420
1448,0000	54,4202	0,1422
1449,0000	54,4578	0,1467
1450,0000	54,4954	0,1499
1451,0000	54,5330	0,1489
1452,0000	54,5705	0,1499
1453,0000	54,6081	0,1549
1454,0000	54,6457	0,1589
1455,0000	54,6833	0,1572
1456,0000	54,7209	0,1570
1457,0000	54,7585	0,1630
1458,0000	54,7960	0,1658
1459,0000	54,8336	0,1650
1460,0000	54,8712	0,1652
1461,0000	54,9088	0,1703
1462,0000	54,9464	0,1733
1463,0000	54,9840	0,1718
1464,0000	55,0215	0,1716
1465,0000	55,0591	0,1770
1466,0000	55,0967	0,1806
1467,0000	55,1343	0,1793
1468,0000	55,1719	0,1795
1469,0000	55,2095	0,1843
1470,0000	55,2470	0,1873
1471,0000	55,2846	0,1847
1472,0000	55,3222	0,1843
1473,0000	55,3598	0,1890
1474,0000	55,3974	0,1924
1475,0000	55,4350	0,1907
1476,0000	55,4725	0,1894
1477,0000	55,5101	0,1941
1478,0000	55,5477	0,1974
1479,0000	55,5853	0,1948
1480,0000	55,6229	0,1941
1481,0000	55,6605	0,1976
1482,0000	55,6980	0,2004
1483,0000	55,7356	0,1984
1484,0000	55,7732	0,1969
1485,0000	55,8108	0,2010
1486,0000	55,8484	0,2025
1487,0000	55,8860	0,2006
1488,0000	55,9235	0,1993
1489,0000	55,9611	0,2017
1490,0000	55,9987	0,2040
1491,0000	56,0363	0,2021
1492,0000	56,0739	0,1993
1493,0000	56,1115	0,2029
1494,0000	56,1490	0,2044
1495,0000	56,1866	0,2012
1496,0000	56,2242	0,1986
1497,0000	56,2618	0,2017
1498,0000	56,2994	0,2023
1499,0000	56,3370	0,1997
1500,0000	56,3745	0,1963
1501,0000	56,4121	0,1991
1502,0000	56,4497	0,2004
1503,0000	56,4873	0,1969
1504,0000	56,5249	0,1935
1505,0000	56,5624	0,1950
1506,0000	56,6000	0,1963
1507,0000	56,6376	0,1911
1508,0000	56,6752	0,1881
1509,0000	56,7128	0,1896
1510,0000	56,7504	0,1898
1511,0000	56,7879	0,1860
1512,0000	56,8255	0,1813
1513,0000	56,8631	0,1832
1514,0000	56,9007	0,1826
1515,0000	56,9383	0,1787
1516,0000	56,9759	0,1735
1517,0000	57,0134	0,1748
1518,0000	57,0510	0,1746
1519,0000	57,0886	0,1699
1520,0000	57,1262	0,1652
1521,0000	57,1638	0,1658
1522,0000	57,2014	0,1658
1523,0000	57,2389	0,1607
1524,0000	57,2765	0,1566
1525,0000	57,3141	0,1566
1526,0000	57,3517	0,1566
1527,0000	57,3893	0,1512
1528,0000	57,4269	0,1461
1529,0000	57,4644	0,1467
1530,0000	57,5020	0,1476
1531,0000	57,5396	0,1411
1532,0000	57,5772	0,1360
1533,0000	57,6148	0,1371
1534,0000	57,6524	0,1373
1535,0000	57,6899	0,1319
1536,0000	57,7275	0,1272
1537,0000	57,7651	0,1278
1538,0000	57,8027	0,1270
1539,0000	57,8403	0,1225
1540,0000	57,8779	0,1179
1541,0000	57,9154	0,1197
1542,0000	57,9530	0,1190
1543,0000	57,9906	0,1145
1544,0000	58,0282	0,1109
1545,0000	58,0658	0,1115
1546,0000	58,1034	0,1124
1547,0000	58,1409	0,1079
1548,0000	58,1785	0,1036
1549,0000	58,2161	0,1059
1550,0000	58,2537	0,1061
1551,0000	58,2913	0,1021
1552,0000	58,3289	0,0997
1553,0000	58,3664	0,1016
1554,0000	58,4040	0,1029
1555,0000	58,4416	0,0997
1556,0000	58,4792	0,0971
1557,0000	58,5168	0,1003
1558,0000	58,5543	0,1029
1559,0000	58,5919	0,1010
1560,0000	58,6295	0,0982
1561,0000	58,6671	0,1014
1562,0000	58,7047	0,1057
1563,0000	58,7423	0,1040
1564,0000	58,7798	0,1019
1565,0000	58,8174	0,1070
1566,0000	58,8550	0,1111
1567,0000	58,8926	0,1102
1568,0000	58,9302	0,1107
1569,0000	58,9678	0,1160
1570,0000	59,0053	0,1210
1571,0000	59,0429	0,1216
1572,0000	59,0805	0,1225
1573,0000	59,1181	0,1287
1574,0000	59,1557	0,1353
1575,0000	59,1933	0,1362
1576,0000	59,2308	0,1383
1577,0000	59,2684	0,1465
1578,0000	59,3060	0,1534
1579,0000	59,3436	0,1568
1580,0000	59,3812	0,1598
1581,0000	59,4188	0,1699
1582,0000	59,4563	0,1780
1583,0000	59,4939	0,1826
1584,0000	59,5315	0,1871
1585,0000	59,5691	0,1978
1586,0000	59,6067	0,2070
1587,0000	59,6443	0,2128
1588,0000	59,6818	0,2201
1589,0000	59,7194	0,2321
1590,0000	59,7570	0,2446
1591,0000	59,7946	0,2491
1592,0000	59,8322	0,2579
1593,0000	59,8698	0,2716
1594,0000	59,9073	0,2856
1595,0000	59,9449	0,2933
1596,0000	59,9825	0,3036
1597,0000	60,0201	0,3197
1598,0000	60,0577	0,3343
1599,0000	60,0953	0,3450
1600,0000	60,1328	0,3560
1601,0000	60,1704	0,3727
1602,0000	60,2080	0,3888
1603,0000	60,2456	0,4000
1604,0000	60,2832	0,4124
1605,0000	60,3208	0,4311
1606,0000	60,3583	0,4487
1607,0000	60,3959	0,4601
1608,0000	60,4335	0,4744
1609,0000	60,4711	0,4951
1610,0000	60,5087	0,5131
1611,0000	60,5462	0,5290
1612,0000	60,5838	0,5433
1613,0000	60,6214	0,5648
1614,0000	60,6590	0,5839
1615,0000	60,6966	0,5998
1616,0000	60,7342	0,6167
1617,0000	60,7717	0,6391
1618,0000	60,8093	0,6638
1619,0000	60,8469	0,6792
1620,0000	60,8845	0,6975
1621,0000	60,9221	0,7211
1622,0000	60,9597	0,7447
1623,0000	60,9972	0,7627
1624,0000	61,0348	0,7816
1625,0000	61,0724	0,8037
1626,0000	61,1100	0,8290
1627,0000	61,1476	0,8498
1628,0000	61,1852	0,8668
1629,0000	61,2227	0,8941
1630,0000	61,2603	0,9196
1631,0000	61,2979	0,9408
1632,0000	61,3355	0,9627
1633,0000	61,3731	0,9896
1634,0000	61,4107	1,0132
1635,0000	61,4482	1,0361
1636,0000	61,4858	1,0555
1637,0000	61,5234	1,0834
1638,0000	61,5610	1,1085
1639,0000	61,5986	1,1308
1640,0000	61,6362	1,1544
1641,0000	61,6737	1,1808
1642,0000	61,7113	1,2057
1643,0000	61,7489	1,2306
1644,0000	61,7865	1,2523
1645,0000	61,8241	1,2791
1646,0000	61,8617	1,3074
1647,0000	61,8992	1,3250
1648,0000	61,9368	1,3491
1649,0000	61,9744	1,3763
1650,0000	62,0120	1,4059
1651,0000	62,0496	1,4255
1652,0000	62,0872	1,4484
1653,0000	62,1247	1,4763
1654,0000	62,1623	1,5081
1655,0000	62,1999	1,5313
1656,0000	62,2375	1,5528
1657,0000	62,2751	1,5798
1658,0000	62,3127	1,6079
1659,0000	62,3502	1,6356
1660,0000	62,3878	1,6545
1661,0000	62,4254	1,6852
1662,0000	62,4630	1,7127
1663,0000	62,5006	1,7378
1664,0000	62,5382	1,7551
1665,0000	62,5757	1,7803
1666,0000	62,6133	1,8073
1667,0000	62,6509	1,8322
1668,0000	62,6885	1,8577
1669,0000	62,7261	1,8848
1670,0000	62,7636	1,9112
1671,0000	62,8012	1,9277
1672,0000	62,8388	1,9490
1673,0000	62,8764	1,9754
1674,0000	62,9140	1,9983
1675,0000	62,9516	2,0237
1676,0000	62,9891	2,0485
1677,0000	63,0267	2,0756
1678,0000	63,0643	2,0992
1679,0000	63,1019	2,1157
1680,0000	63,1395	2,1361
1681,0000	63,1771	2,1591
1682,0000	63,2146	2,1816
1683,0000	63,2522	2,2033
1684,0000	63,2898	2,2194
1685,0000	63,3274	2,2451
1686,0000	63,3650	2,2681
1687,0000	63,4026	2,2864
1688,0000	63,4401	2,2962
1689,0000	63,4777	2,3211
1690,0000	63,5153	2,3387
1691,0000	63,5529	2,3570
1692,0000	63,5905	2,3720
1693,0000	63,6281	2,3917
1694,0000	63,6656	2,4111
1695,0000	63,7032	2,4250
1696,0000	63,7408	2,4304
1697,0000	63,7784	2,4542
1698,0000	63,8160	2,4712
1699,0000	63,8536	2,4849
1700,0000	63,8911	2,4928
1701,0000	63,9287	2,5111
1702,0000	63,9663	2,5164
1703,0000	64,0039	2,5330
1704,0000	64,0415	2,5388
1705,0000	64,0791	2,5525
1706,0000	64,1166	2,5600
1707,0000	64,1542	2,5688
1708,0000	64,1918	2,5654
1709,0000	64,2294	2,5785
1710,0000	64,2670	2,5871
1711,0000	64,3046	2,5907
1712,0000	64,3421	2,5903
1713,0000	64,3797	2,5995
1714,0000	64,4173	2,5991
1715,0000	64,4549	2,5980
1716,0000	64,4925	2,5937
1717,0000	64,5301	2,5984
1718,0000	64,5676	2,5993
1719,0000	64,6052	2,6044
1720,0000	64,6428	2,5980
1721,0000	64,6804	2,5937
1722,0000	64,7180	2,5881
1723,0000	64,7555	2,5845
1724,0000	64,7931	2,5695
1725,0000	64,8307	2,5710
1726,0000	64,8683	2,5581
1727,0000	64,9059	2,5521
1728,0000	64,9435	2,5349
1729,0000	64,9810	2,5240
1730,0000	65,0186	2,5192
1731,0000	65,0562	2,5008
1732,0000	65,0938	2,4823
1733,0000	65,1314	2,4742
1734,0000	65,1690	2,4555
1735,0000	65,2065	2,4405
1736,0000	65,2441	2,4164
1737,0000	65,2817	2,3954
1738,0000	65,3193	2,3838
1739,0000	65,3569	2,3600
1740,0000	65,3945	2,3409
1741,0000	65,4320	2,3205
1742,0000	65,4696	2,3048
1743,0000	65,5072	2,2780
1744,0000	65,5448	2,2501
1745,0000	65,5824	2,2275
1746,0000	65,6200	2,2102
1747,0000	65,6575	2,1853
1748,0000	65,6951	2,1541
1749,0000	65,7327	2,1346
1750,0000	65,7703	2,1089
1751,0000	65,8079	2,0833
1752,0000	65,8455	2,0539
1753,0000	65,8830	2,0322
1754,0000	65,9206	2,0078
1755,0000	65,9582	1,9756
1756,0000	65,9958	1,9432
1757,0000	66,0334	1,9178
1758,0000	66,0710	1,8908
1759,0000	66,1085	1,8592
1760,0000	66,1461	1,8223
1761,0000	66,1837	1,7936
1762,0000	66,2213	1,7695
1763,0000	66,2589	1,7350
1764,0000	66,2965	1,7013
1765,0000	66,3340	1,6725
1766,0000	66,3716	1,6448
1767,0000	66,4092	1,6139
1768,0000	66,4468	1,5800
1769,0000	66,4844	1,5510
1770,0000	66,5220	1,5244
1771,0000	66,5595	1,4903
1772,0000	66,5971	1,4566
1773,0000	66,6347	1,4268
1774,0000	66,6723	1,4034
1775,0000	66,7099	1,3705
1776,0000	66,7474	1,3377
1777,0000	66,7850	1,3089
1778,0000	66,8226	1,2838
1779,0000	66,8602	1,2510
1780,0000	66,8978	1,2196
1781,0000	66,9354	1,1926
1782,0000	66,9729	1,1677
1783,0000	67,0105	1,1351
1784,0000	67,0481	1,1029
1785,0000	67,0857	1,0767
1786,0000	67,1233	1,0544
1787,0000	67,1609	1,0222
1788,0000	67,1984	0,9930
1789,0000	67,2360	0,9687
1790,0000	67,2736	0,9473
1791,0000	67,3112	0,9183
1792,0000	67,3488	0,8904
1793,0000	67,3864	0,8674
1794,0000	67,4239	0,8490
1795,0000	67,4615	0,8198
1796,0000	67,4991	0,7940
1797,0000	67,5367	0,7736
1798,0000	67,5743	0,7550
1799,0000	67,6119	0,7290
1800,0000	67,6494	0,7050
1801,0000	67,6870	0,6820
1802,0000	67,7246	0,6653
1803,0000	67,7622	0,6401
1804,0000	67,7998	0,6183
1805,0000	67,8374	0,6015
1806,0000	67,8749	0,5839
1807,0000	67,9125	0,5620
1808,0000	67,9501	0,5410
1809,0000	67,9877	0,5238
1810,0000	68,0253	0,5094
1811,0000	68,0629	0,4880
1812,0000	68,1004	0,4687
1813,0000	68,1380	0,4551
1814,0000	68,1756	0,4427
1815,0000	68,2132	0,4244
1816,0000	68,2508	0,4071
1817,0000	68,2884	0,3935
1818,0000	68,3259	0,3826
1819,0000	68,3635	0,3661
1820,0000	68,4011	0,3480
1821,0000	68,4387	0,3369
1822,0000	68,4763	0,3274
1823,0000	68,5139	0,3130
1824,0000	68,5514	0,2987
1825,0000	68,5890	0,2892
1826,0000	68,6266	0,2819
1827,0000	68,6642	0,2684
1828,0000	68,7018	0,2545
1829,0000	68,7393	0,2478
1830,0000	68,7769	0,2405
1831,0000	68,8145	0,2291
1832,0000	68,8521	0,2171
1833,0000	68,8897	0,2117
1834,0000	68,9273	0,2059
1835,0000	68,9648	0,1954
1836,0000	69,0024	0,1851
1837,0000	69,0400	0,1804
1838,0000	69,0776	0,1768
1839,0000	69,1152	0,1684
1840,0000	69,1528	0,1585
1841,0000	69,1903	0,1562
1842,0000	69,2279	0,1529
1843,0000	69,2655	0,1452
1844,0000	69,3031	0,1379
1845,0000	69,3407	0,1353
1846,0000	69,3783	0,1345
1847,0000	69,4158	0,1280
1848,0000	69,4534	0,1218
1849,0000	69,4910	0,1207
1850,0000	69,5286	0,1203
1851,0000	69,5662	0,1152
1852,0000	69,6038	0,1100
1853,0000	69,6413	0,1104
1854,0000	69,6789	0,1109
1855,0000	69,7165	0,1070
1856,0000	69,7541	0,1027
1857,0000	69,7917	0,1031
1858,0000	69,8293	0,1059
1859,0000	69,8668	0,1023
1860,0000	69,9044	0,0982
1861,0000	69,9420	0,1001
1862,0000	69,9796	0,1023
1863,0000	70,0172	0,1001
1864,0000	70,0548	0,0980
1865,0000	70,0923	0,1001
1866,0000	70,1299	0,1036
1867,0000	70,1675	0,1021
1868,0000	70,2051	0,1006
1869,0000	70,2427	0,1036
1870,0000	70,2803	0,1072
1871,0000	70,3178	0,1064
1872,0000	70,3554	0,1046
1873,0000	70,3930	0,1087
1874,0000	70,4306	0,1130
1875,0000	70,4682	0,1132
1876,0000	70,5058	0,1111
1877,0000	70,5433	0,1158
1878,0000	70,5809	0,1207
1879,0000	70,6185	0,1201
1880,0000	70,6561	0,1197
1881,0000	70,6937	0,1244
1882,0000	70,7312	0,1306
1883,0000	70,7688	0,1298
1884,0000	70,8064	0,1293
1885,0000	70,8440	0,1345
1886,0000	70,8816	0,1396
1887,0000	70,9192	0,1401
1888,0000	70,9567	0,1394
1889,0000	70,9943	0,1450
1890,0000	71,0319	0,1501
1891,0000	71,0695	0,1514
1892,0000	71,1071	0,1499
1893,0000	71,1447	0,1549
1894,0000	71,1822	0,1607
1895,0000	71,2198	0,1619
1896,0000	71,2574	0,1617
1897,0000	71,2950	0,1660
1898,0000	71,3326	0,1705
1899,0000	71,3702	0,1722
1900,0000	71,4077	0,1703
1901,0000	71,4453	0,1759
1902,0000	71,4829	0,1808
1903,0000	71,5205	0,1813
1904,0000	71,5581	0,1793
1905,0000	71,5957	0,1849
1906,0000	71,6332	0,1901
1907,0000	71,6708	0,1892
1908,0000	71,7084	0,1873
1909,0000	71,7460	0,1918
1910,0000	71,7836	0,1959
1911,0000	71,8212	0,1954
1912,0000	71,8587	0,1939
1913,0000	71,8963	0,1978
1914,0000	71,9339	0,2019
1915,0000	71,9715	0,2006
1916,0000	72,0091	0,1984
1917,0000	72,0467	0,2017
1918,0000	72,0842	0,2057
1919,0000	72,1218	0,2042
1920,0000	72,1594	0,2019
1921,0000	72,1970	0,2047
1922,0000	72,2346	0,2079
1923,0000	72,2722	0,2066
1924,0000	72,3097	0,2038
1925,0000	72,3473	0,2059
1926,0000	72,3849	0,2087
1927,0000	72,4225	0,2068
1928,0000	72,4601	0,2036
1929,0000	72,4977	0,2055
1930,0000	72,5352	0,2079
1931,0000	72,5728	0,2051
1932,0000	72,6104	0,2004
1933,0000	72,6480	0,2025
1934,0000	72,6856	0,2042
1935,0000	72,7231	0,2012
1936,0000	72,7607	0,1980
1937,0000	72,7983	0,1991
1938,0000	72,8359	0,2008
1939,0000	72,8735	0,1976
1940,0000	72,9111	0,1931
1941,0000	72,9486	0,1939
1942,0000	72,9862	0,1950
1943,0000	73,0238	0,1918
1944,0000	73,0614	0,1888
1945,0000	73,0990	0,1888
1946,0000	73,1366	0,1894
1947,0000	73,1741	0,1860
1948,0000	73,2117	0,1817
1949,0000	73,2493	0,1819
1950,0000	73,2869	0,1828
1951,0000	73,3245	0,1787
1952,0000	73,3621	0,1746
1953,0000	73,3996	0,1742
1954,0000	73,4372	0,1759
1955,0000	73,4748	0,1725
1956,0000	73,5124	0,1669
1957,0000	73,5500	0,1671
1958,0000	73,5876	0,1686
1959,0000	73,6251	0,1645
1960,0000	73,6627	0,1602
1961,0000	73,7003	0,1604
1962,0000	73,7379	0,1617
1963,0000	73,7755	0,1579
1964,0000	73,8131	0,1529
1965,0000	73,8506	0,1531
1966,0000	73,8882	0,1546
1967,0000	73,9258	0,1497
1968,0000	73,9634	0,1456
1969,0000	74,0010	0,1465
1970,0000	74,0386	0,1476
1971,0000	74,0761	0,1435
1972,0000	74,1137	0,1379
1973,0000	74,1513	0,1386
1974,0000	74,1889	0,1401
1975,0000	74,2265	0,1360
1976,0000	74,2641	0,1321
1977,0000	74,3016	0,1319
1978,0000	74,3392	0,1340
1979,0000	74,3768	0,1291
1980,0000	74,4144	0,1255
1981,0000	74,4520	0,1255
1982,0000	74,4896	0,1272
1983,0000	74,5271	0,1246
1984,0000	74,5647	0,1186
1985,0000	74,6023	0,1199
1986,0000	74,6399	0,1212
1987,0000	74,6775	0,1173
1988,0000	74,7150	0,1137
1989,0000	74,7526	0,1139
1990,0000	74,7902	0,1160
1991,0000	74,8278	0,1132
1992,0000	74,8654	0,1083
1993,0000	74,9030	0,1098
1994,0000	74,9405	0,1122
1995,0000	74,9781	0,1085
1996,0000	75,0157	0,1038
1997,0000	75,0533	0,1053
1998,0000	75,0909	0,1072
1999,0000	75,1285	0,1044
2000,0000	75,1660	0,1010
2001,0000	75,2036	0,1021
2002,0000	75,2412	0,1042
2003,0000	75,2788	0,1010
2004,0000	75,3164	0,0982
2005,0000	75,3540	0,0999
2006,0000	75,3915	0,1012
2007,0000	75,4291	0,0999
2008,0000	75,4667	0,0963
2009,0000	75,5043	0,0973
2010,0000	75,5419	0,1006
2011,0000	75,5795	0,0986
2012,0000	75,6170	0,0948
2013,0000	75,6546	0,0967
2014,0000	75,6922	0,0997
2015,0000	75,7298	0,0976
2016,0000	75,7674	0,0943
2017,0000	75,8050	0,0967
2018,0000	75,8425	0,0999
2019,0000	75,8801	0,0978
2020,0000	75,9177	0,0952
2021,0000	75,9553	0,0976
2022,0000	75,9929	0,1012
2023,0000	76,0305	0,0988
2024,0000	76,0680	0,0967
2025,0000	76,1056	0,0986
2026,0000	76,1432	0,1023
2027,0000	76,1808	0,1001
2028,0000	76,2184	0,0978
2029,0000	76,2560	0,1003
2030,0000	76,2935	0,1049
2031,0000	76,3311	0,1027
2032,0000	76,3687	0,1012
2033,0000	76,4063	0,1034
2034,0000	76,4439	0,1072
2035,0000	76,4815	0,1064
2036,0000	76,5190	0,1031
2037,0000	76,5566	0,1064
2038,0000	76,5942	0,1104
2039,0000	76,6318	0,1098
2040,0000	76,6694	0,1072
2041,0000	76,7069	0,1100
2042,0000	76,7445	0,1141
2043,0000	76,7821	0,1130
2044,0000	76,8197	0,1111
2045,0000	76,8573	0,1132
2046,0000	76,8949	0,1169
2047,0000	76,9324	0,1162
2048,0000	76,9700	0,1132
2049,0000	77,0076	0,1160
2050,0000	77,0452	0,1201
2051,0000	77,0828	0,1197
2052,0000	77,1204	0,1169
2053,0000	77,1579	0,1192
2054,0000	77,1955	0,1222
2055,0000	77,2331	0,1225
2056,0000	77,2707	0,1190
2057,0000	77,3083	0,1218
2058,0000	77,3459	0,1255
2059,0000	77,3834	0,1252
2060,0000	77,4210	0,1214
2061,0000	77,4586	0,1244
2062,0000	77,4962	0,1283
2063,0000	77,5338	0,1274
2064,0000	77,5714	0,1250
2065,0000	77,6089	0,1270
2066,0000	77,6465	0,1304
2067,0000	77,6841	0,1298
2068,0000	77,7217	0,1274
2069,0000	77,7593	0,1291
2070,0000	77,7969	0,1317
2071,0000	77,8344	0,1304
2072,0000	77,8720	0,1278
2073,0000	77,9096	0,1302
2074,0000	77,9472	0,1336
2075,0000	77,9848	0,1321
2076,0000	78,0224	0,1295
2077,0000	78,0599	0,1317
2078,0000	78,0975	0,1343
2079,0000	78,1351	0,1332
2080,0000	78,1727	0,1298
2081,0000	78,2103	0,1315
2082,0000	78,2479	0,1355
2083,0000	78,2854	0,1338
2084,0000	78,3230	0,1308
2085,0000	78,3606	0,1330
2086,0000	78,3982	0,1362
2087,0000	78,4358	0,1343
2088,0000	78,4734	0,1317
2089,0000	78,5109	0,1334
2090,0000	78,5485	0,1362
2091,0000	78,5861	0,1336
2092,0000	78,6237	0,1308
2093,0000	78,6613	0,1317
2094,0000	78,6988	0,1353
2095,0000	78,7364	0,1351
2096,0000	78,7740	0,1295
2097,0000	78,8116	0,1349
2098,0000	78,8492	0,1338
2099,0000	78,8868	0,1317
2100,0000	78,9243	0,1276
2101,0000	78,9619	0,1295
2102,0000	78,9995	0,1403
2103,0000	79,0371	0,1308
2104,0000	79,0747	0,1313
2105,0000	79,1123	0,1287
2106,0000	79,1498	0,1321
2107,0000	79,1874	0,1291
2108,0000	79,2250	0,1257
2109,0000	79,2626	0,1257
2110,0000	79,3002	0,1332
2111,0000	79,3378	0,1345
2112,0000	79,3753	0,1235
2113,0000	79,4129	0,1274
2114,0000	79,4505	0,1265
2115,0000	79,4881	0,1280
2116,0000	79,5257	0,1192
2117,0000	79,5633	0,1252
2118,0000	79,6008	0,1233
2119,0000	79,6384	0,1222
2120,0000	79,6760	0,1171
2121,0000	79,7136	0,1179
2122,0000	79,7512	0,1250
2123,0000	79,7888	0,1177
2124,0000	79,8263	0,1169
2125,0000	79,8639	0,1132
2126,0000	79,9015	0,1205
2127,0000	79,9391	0,1132
2128,0000	79,9767	0,1091
2129,0000	80,0143	0,1109
2130,0000	80,0518	0,1130
2131,0000	80,0894	0,1102
2132,0000	80,1270	0,1064
2133,0000	80,1646	0,1076
2134,0000	80,2022	0,1100
2135,0000	80,2398	0,1076
2136,0000	80,2773	0,1027
2137,0000	80,3149	0,1042
2138,0000	80,3525	0,1072
2139,0000	80,3901	0,1051
2140,0000	80,4277	0,1001
2141,0000	80,4653	0,1019
2142,0000	80,5028	0,1046
2143,0000	80,5404	0,1027
2144,0000	80,5780	0,0984
2145,0000	80,6156	0,0988
2146,0000	80,6532	0,1021
2147,0000	80,6908	0,1001
2148,0000	80,7283	0,0967
2149,0000	80,7659	0,0976
2150,0000	80,8035	0,1006
2151,0000	80,8411	0,0988
2152,0000	80,8787	0,0948
2153,0000	80,9162	0,0965
2154,0000	80,9538	0,0999
2155,0000	80,9914	0,0980
2156,0000	81,0290	0,0937
2157,0000	81,0666	0,0961
2158,0000	81,1042	0,0986
2159,0000	81,1417	0,0973
2160,0000	81,1793	0,0943
2161,0000	81,2169	0,0950
2162,0000	81,2545	0,0976
2163,0000	81,2921	0,0963
2164,0000	81,3297	0,0931
2165,0000	81,3672	0,0954
2166,0000	81,4048	0,0980
2167,0000	81,4424	0,0965
2168,0000	81,4800	0,0935
2169,0000	81,5176	0,0954
2170,0000	81,5552	0,0993
2171,0000	81,5927	0,0978
2172,0000	81,6303	0,0943
2173,0000	81,6679	0,0969
2174,0000	81,7055	0,0993
2175,0000	81,7431	0,0991
2176,0000	81,7807	0,0954
2177,0000	81,8182	0,0967
2178,0000	81,8558	0,1006
2179,0000	81,8934	0,0995
2180,0000	81,9310	0,0963
2181,0000	81,9686	0,0986
2182,0000	82,0062	0,1019
2183,0000	82,0437	0,1012
2184,0000	82,0813	0,0976
2185,0000	82,1189	0,0999
2186,0000	82,1565	0,1038
2187,0000	82,1941	0,1019
2188,0000	82,2317	0,0993
2189,0000	82,2692	0,1016
2190,0000	82,3068	0,1055
2191,0000	82,3444	0,1042
2192,0000	82,3820	0,1014
2193,0000	82,4196	0,1034
2194,0000	82,4572	0,1061
2195,0000	82,4947	0,1061
2196,0000	82,5323	0,1031
2197,0000	82,5699	0,1049
2198,0000	82,6075	0,1094
2199,0000	82,6451	0,1079
2200,0000	82,6827	0,1051
2201,0000	82,7202	0,1070
2202,0000	82,7578	0,1109
2203,0000	82,7954	0,1104
2204,0000	82,8330	0,1076
2205,0000	82,8706	0,1091
2206,0000	82,9081	0,1122
2207,0000	82,9457	0,1119
2208,0000	82,9833	0,1085
2209,0000	83,0209	0,1107
2210,0000	83,0585	0,1147
2211,0000	83,0961	0,1137
2212,0000	83,1336	0,1104
2213,0000	83,1712	0,1124
2214,0000	83,2088	0,1158
2215,0000	83,2464	0,1143
2216,0000	83,2840	0,1119
2217,0000	83,3216	0,1132
2218,0000	83,3591	0,1171
2219,0000	83,3967	0,1160
2220,0000	83,4343	0,1128
2221,0000	83,4719	0,1139
2222,0000	83,5095	0,1177
2223,0000	83,5471	0,1160
2224,0000	83,5846	0,1137
2225,0000	83,6222	0,1145
2226,0000	83,6598	0,1173
2227,0000	83,6974	0,1167
2228,0000	83,7350	0,1126
2229,0000	83,7726	0,1143
2230,0000	83,8101	0,1182
2231,0000	83,8477	0,1158
2232,0000	83,8853	0,1134
2233,0000	83,9229	0,1130
2234,0000	83,9605	0,1173
2235,0000	83,9981	0,1162
2236,0000	84,0356	0,1113
2237,0000	84,0732	0,1154
2238,0000	84,1108	0,1171
2239,0000	84,1484	0,1201
2240,0000	84,1860	0,1207
2241,0000	84,2236	0,1134
2242,0000	84,2611	0,1162
2243,0000	84,2987	0,1154
2244,0000	84,3363	0,1149
2245,0000	84,3739	0,1126
2246,0000	84,4115	0,1182
2247,0000	84,4491	0,1139
2248,0000	84,4866	0,1156
2249,0000	84,5242	0,1162
2250,0000	84,5618	0,1152
2251,0000	84,5994	0,1182
2252,0000	84,6370	0,1100
2253,0000	84,6746	0,1137
2254,0000	84,7121	0,1147
2255,0000	84,7497	0,1169
2256,0000	84,7873	0,1091
2257,0000	84,8249	0,1124
2258,0000	84,8625	0,1134
2259,0000	84,9000	0,1154
2260,0000	84,9376	0,1081
2261,0000	84,9752	0,1087
2262,0000	85,0128	0,1124
2263,0000	85,0504	0,1109
2264,0000	85,0880	0,1070
2265,0000	85,1255	0,1081
2266,0000	85,1631	0,1158
2267,0000	85,2007	0,1094
2268,0000	85,2383	0,1081
2269,0000	85,2759	0,1091
2270,0000	85,3135	0,1100
2271,0000	85,3510	0,1137
2272,0000	85,3886	0,1038
2273,0000	85,4262	0,1059
2274,0000	85,4638	0,1079
2275,0000	85,5014	0,1074
2276,0000	85,5390	0,1027
2277,0000	85,5765	0,1029
2278,0000	85,6141	0,1059
2279,0000	85,6517	0,1057
2280,0000	85,6893	0,1016
2281,0000	85,7269	0,1014
2282,0000	85,7645	0,1057
2283,0000	85,8020	0,1034
2284,0000	85,8396	0,0997
2285,0000	85,8772	0,0999
2286,0000	85,9148	0,1042
2287,0000	85,9524	0,1027
2288,0000	85,9900	0,0991
2289,0000	86,0275	0,0991
2290,0000	86,0651	0,1023
2291,0000	86,1027	0,1008
2292,0000	86,1403	0,0976
2293,0000	86,1779	0,0980
2294,0000	86,2155	0,1012
2295,0000	86,2530	0,1001
2296,0000	86,2906	0,0967
2297,0000	86,3282	0,0967
2298,0000	86,3658	0,0997
2299,0000	86,4034	0,0995
2300,0000	86,4410	0,0952
2301,0000	86,4785	0,0952
2302,0000	86,5161	0,0991
2303,0000	86,5537	0,0984
2304,0000	86,5913	0,0941
2305,0000	86,6289	0,0956
2306,0000	86,6665	0,0991
2307,0000	86,7040	0,0976
2308,0000	86,7416	0,0926
2309,0000	86,7792	0,0946
2310,0000	86,8168	0,0980
2311,0000	86,8544	0,0976
2312,0000	86,8919	0,0928
2313,0000	86,9295	0,0939
2314,0000	86,9671	0,0991
2315,0000	87,0047	0,0973
2316,0000	87,0423	0,0924
2317,0000	87,0799	0,0937
2318,0000	87,1174	0,0978
2319,0000	87,1550	0,0971
2320,0000	87,1926	0,0933
2321,0000	87,2302	0,0950
2322,0000	87,2678	0,0978
2323,0000	87,3054	0,0971
2324,0000	87,3429	0,0933
2325,0000	87,3805	0,0948
2326,0000	87,4181	0,0978
2327,0000	87,4557	0,0978
2328,0000	87,4933	0,0937
2329,0000	87,5309	0,0948
2330,0000	87,5684	0,0982
2331,0000	87,6060	0,0984
2332,0000	87,6436	0,0943
2333,0000	87,6812	0,0954
2334,0000	87,7188	0,0988
2335,0000	87,7564	0,0982
2336,0000	87,7939	0,0967
2337,0000	87,8315	0,0956
2338,0000	87,8691	0,1021
2339,0000	87,9067	0,0991
2340,0000	87,9443	0,0963
2341,0000	87,9819	0,0976
2342,0000	88,0194	0,1006
2343,0000	88,0570	0,1016
2344,0000	88,0946	0,0971
2345,0000	88,1322	0,0978
2346,0000	88,1698	0,1023
2347,0000	88,2074	0,1010
2348,0000	88,2449	0,0978
2349,0000	88,2825	0,0988
2350,0000	88,3201	0,1031
2351,0000	88,3577	0,1019
2352,0000	88,3953	0,0991
2353,0000	88,4329	0,0997
2354,0000	88,4704	0,1038
2355,0000	88,5080	0,1038
2356,0000	88,5456	0,0995
2357,0000	88,5832	0,1006
2358,0000	88,6208	0,1040
2359,0000	88,6584	0,1040
2360,0000	88,6959	0,1003
2361,0000	88,7335	0,1014
2362,0000	88,7711	0,1051
2363,0000	88,8087	0,1049
2364,0000	88,8463	0,1010
2365,0000	88,8838	0,1025
2366,0000	88,9214	0,1055
2367,0000	88,9590	0,1053
2368,0000	88,9966	0,1016
2369,0000	89,0342	0,1025
2370,0000	89,0718	0,1068
2371,0000	89,1093	0,1059
2372,0000	89,1469	0,1023
2373,0000	89,1845	0,1031
2374,0000	89,2221	0,1068
2375,0000	89,2597	0,1061
2376,0000	89,2973	0,1025
2377,0000	89,3348	0,1036
2378,0000	89,3724	0,1068
2379,0000	89,4100	0,1068
2380,0000	89,4476	0,1025
2381,0000	89,4852	0,1046
2382,0000	89,5228	0,1076
2383,0000	89,5603	0,1074
2384,0000	89,5979	0,1036
2385,0000	89,6355	0,1040
2386,0000	89,6731	0,1081
2387,0000	89,7107	0,1076
2388,0000	89,7483	0,1036
2389,0000	89,7858	0,1040
2390,0000	89,8234	0,1083
2391,0000	89,8610	0,1072
2392,0000	89,8986	0,1034
2393,0000	89,9362	0,1040
2394,0000	89,9738	0,1074
2395,0000	90,0113	0,1081
2396,0000	90,0489	0,1034
2397,0000	90,0865	0,1051
2398,0000	90,1241	0,1083
2399,0000	90,1617	0,1079
2400,0000	90,1993	0,1036
2401,0000	90,2368	0,1049
2402,0000	90,2744	0,1079
2403,0000	90,3120	0,1074
2404,0000	90,3496	0,1034
2405,0000	90,3872	0,1040
2406,0000	90,4248	0,1079
2407,0000	90,4623	0,1076
2408,0000	90,4999	0,1074
2409,0000	90,5375	0,1038
2410,0000	90,5751	0,1117
2411,0000	90,6127	0,1074
2412,0000	90,6503	0,1027
2413,0000	90,6878	0,1076
2414,0000	90,7254	0,1074
2415,0000	90,7630	0,1100
2416,0000	90,8006	0,1025
2417,0000	90,8382	0,1027
2418,0000	90,8757	0,1064
2419,0000	90,9133	0,1059
2420,0000	90,9509	0,1012
2421,0000	90,9885	0,1016
2422,0000	91,0261	0,1046
2423,0000	91,0637	0,1044
2424,0000	91,1012	0,1003
2425,0000	91,1388	0,1003
2426,0000	91,1764	0,1044
2427,0000	91,2140	0,1040
2428,0000	91,2516	0,0993
2429,0000	91,2892	0,0995
2430,0000	91,3267	0,1023
2431,0000	91,3643	0,1025
2432,0000	91,4019	0,0988
2433,0000	91,4395	0,0988
2434,0000	91,4771	0,1019
2435,0000	91,5147	0,1014
2436,0000	91,5522	0,0973
2437,0000	91,5898	0,0973
2438,0000	91,6274	0,1012
2439,0000	91,6650	0,1008
2440,0000	91,7026	0,0963
2441,0000	91,7402	0,0958
2442,0000	91,7777	0,1001
2443,0000	91,8153	0,0991
2444,0000	91,8529	0,0950
2445,0000	91,8905	0,0954
2446,0000	91,9281	0,0984
2447,0000	91,9657	0,0993
2448,0000	92,0032	0,0948
2449,0000	92,0408	0,0948
2450,0000	92,0784	0,0993
2451,0000	92,1160	0,0982
2452,0000	92,1536	0,0943
2453,0000	92,1912	0,0943
2454,0000	92,2287	0,0982
2455,0000	92,2663	0,0976
2456,0000	92,3039	0,0939
2457,0000	92,3415	0,0937
2458,0000	92,3791	0,0978
2459,0000	92,4167	0,0976
2460,0000	92,4542	0,0935
2461,0000	92,4918	0,0943
2462,0000	92,5294	0,0978
2463,0000	92,5670	0,0969
2464,0000	92,6046	0,0935
2465,0000	92,6422	0,0935
2466,0000	92,6797	0,0976
2467,0000	92,7173	0,0982
2468,0000	92,7549	0,0928
2469,0000	92,7925	0,0935
2470,0000	92,8301	0,0976
2471,0000	92,8676	0,0973
2472,0000	92,9052	0,0931
2473,0000	92,9428	0,0935
2474,0000	92,9804	0,0973
2475,0000	93,0180	0,0969
2476,0000	93,0556	0,0939
2477,0000	93,0931	0,0935
2478,0000	93,1307	0,0973
2479,0000	93,1683	0,0978
2480,0000	93,2059	0,0976
2481,0000	93,2435	0,0943
2482,0000	93,2811	0,0997
2483,0000	93,3186	0,0999
2484,0000	93,3562	0,0937
2485,0000	93,3938	0,0982
2486,0000	93,4314	0,0986
2487,0000	93,4690	0,1023
2488,0000	93,5066	0,0946
2489,0000	93,5441	0,0948
2490,0000	93,5817	0,0986
2491,0000	93,6193	0,0988
2492,0000	93,6569	0,0950
2493,0000	93,6945	0,0954
2494,0000	93,7321	0,0995
2495,0000	93,7696	0,0993
2496,0000	93,8072	0,0963
2497,0000	93,8448	0,0954
2498,0000	93,8824	0,0995
2499,0000	93,9200	0,1003
2500,0000	93,9576	0,0961
2501,0000	93,9951	0,0961
2502,0000	94,0327	0,0995
2503,0000	94,0703	0,1003
2504,0000	94,1079	0,0965
2505,0000	94,1455	0,0971
2506,0000	94,1831	0,1014
2507,0000	94,2206	0,1014
2508,0000	94,2582	0,0978
2509,0000	94,2958	0,0971
2510,0000	94,3334	0,1014
2511,0000	94,3710	0,1021
2512,0000	94,4086	0,0984
2513,0000	94,4461	0,0984
2514,0000	94,4837	0,1023
2515,0000	94,5213	0,1031
2516,0000	94,5589	0,0986
2517,0000	94,5965	0,0995
2518,0000	94,6341	0,1031
2519,0000	94,6716	0,1038
2520,0000	94,7092	0,0993
2521,0000	94,7468	0,0995
2522,0000	94,7844	0,1044
2523,0000	94,8220	0,1038
2524,0000	94,8595	0,1006
2525,0000	94,8971	0,1003
2526,0000	94,9347	0,1042
2527,0000	94,9723	0,1042
2528,0000	95,0099	0,1003
2529,0000	95,0475	0,1001
2530,0000	95,0850	0,1049
2531,0000	95,1226	0,1049
2532,0000	95,1602	0,1006
2533,0000	95,1978	0,1012
2534,0000	95,2354	0,1046
2535,0000	95,2730	0,1049
2536,0000	95,3105	0,1012
2537,0000	95,3481	0,1010
2538,0000	95,3857	0,1049
2539,0000	95,4233	0,1042
2540,0000	95,4609	0,1001
2541,0000	95,4985	0,1003
2542,0000	95,5360	0,1049
2543,0000	95,5736	0,1049
2544,0000	95,6112	0,1003
2545,0000	95,6488	0,1003
2546,0000	95,6864	0,1038
2547,0000	95,7240	0,1034
2548,0000	95,7615	0,1003
2549,0000	95,7991	0,0999
2550,0000	95,8367	0,1034
2551,0000	95,8743	0,1044
2552,0000	95,9119	0,1038
2553,0000	95,9495	0,0988
2554,0000	95,9870	0,1029
2555,0000	96,0246	0,1070
2556,0000	96,0622	0,0991
2557,0000	96,0998	0,1025
2558,0000	96,1374	0,1021
2559,0000	96,1750	0,1061
2560,0000	96,2125	0,0988
2561,0000	96,2501	0,0978
2562,0000	96,2877	0,1014
2563,0000	96,3253	0,1019
2564,0000	96,3629	0,0980
2565,0000	96,4005	0,0978
2566,0000	96,4380	0,1010
2567,0000	96,4756	0,1010
2568,0000	96,5132	0,0971
2569,0000	96,5508	0,0980
2570,0000	96,5884	0,1012
2571,0000	96,6260	0,1008
2572,0000	96,6635	0,0973
2573,0000	96,7011	0,0963
2574,0000	96,7387	0,1006
2575,0000	96,7763	0,0999
2576,0000	96,8139	0,0976
2577,0000	96,8514	0,0967
2578,0000	96,8890	0,1001
2579,0000	96,9266	0,1001
2580,0000	96,9642	0,0963
2581,0000	97,0018	0,0963
2582,0000	97,0394	0,0986
2583,0000	97,0769	0,0995
2584,0000	97,1145	0,0954
2585,0000	97,1521	0,0958
2586,0000	97,1897	0,0997
2587,0000	97,2273	0,0997
2588,0000	97,2649	0,0954
2589,0000	97,3024	0,0952
2590,0000	97,3400	0,0995
2591,0000	97,3776	0,0984
2592,0000	97,4152	0,0943
2593,0000	97,4528	0,0943
2594,0000	97,4904	0,0980
2595,0000	97,5279	0,0986
2596,0000	97,5655	0,0943
2597,0000	97,6031	0,0941
2598,0000	97,6407	0,0980
2599,0000	97,6783	0,0982
2600,0000	97,7159	0,0946
2601,0000	97,7534	0,0937
2602,0000	97,7910	0,0969
2603,0000	97,8286	0,0982
2604,0000	97,8662	0,0937
2605,0000	97,9038	0,0933
2606,0000	97,9414	0,0971
2607,0000	97,9789	0,0978
2608,0000	98,0165	0,0946
2609,0000	98,0541	0,0939
2610,0000	98,0917	0,0965
2611,0000	98,1293	0,0965
2612,0000	98,1669	0,0935
2613,0000	98,2044	0,0913
2614,0000	98,2420	0,0961
2615,0000	98,2796	0,0965
2616,0000	98,3172	0,0931
2617,0000	98,3548	0,0926
2618,0000	98,3924	0,0961
2619,0000	98,4299	0,0967
2620,0000	98,4675	0,0928
2621,0000	98,5051	0,0928
2622,0000	98,5427	0,0963
2623,0000	98,5803	0,0967
2624,0000	98,6179	0,0950
2625,0000	98,6554	0,0948
2626,0000	98,6930	0,0967
2627,0000	98,7306	0,1003
2628,0000	98,7682	0,0939
2629,0000	98,8058	0,0969
2630,0000	98,8434	0,0969
2631,0000	98,8809	0,1008
2632,0000	98,9185	0,0933
2633,0000	98,9561	0,0924
2634,0000	98,9937	0,0963
2635,0000	99,0313	0,0978
2636,0000	99,0688	0,0933
2637,0000	99,1064	0,0935
2638,0000	99,1440	0,0976
2639,0000	99,1816	0,0980
2640,0000	99,2192	0,0943
2641,0000	99,2568	0,0937
2642,0000	99,2943	0,0971
2643,0000	99,3319	0,0978
2644,0000	99,3695	0,0946
2645,0000	99,4071	0,0941
2646,0000	99,4447	0,0980
2647,0000	99,4823	0,0986
2648,0000	99,5198	0,0948
2649,0000	99,5574	0,0946
2650,0000	99,5950	0,0984
2651,0000	99,6326	0,0993
2652,0000	99,6702	0,0954
2653,0000	99,7078	0,0954
2654,0000	99,7453	0,0984
2655,0000	99,7829	0,0997
2656,0000	99,8205	0,0961
2657,0000	99,8581	0,0950
2658,0000	99,8957	0,0988
2659,0000	99,9333	0,0995
2660,0000	99,9708	NaN
2661,0000	100,0084	NaN
2662,0000	100,0460	NaN
2663,0000	100,0836	NaN
2664,0000	100,1212	NaN
2665,0000	100,1588	NaN
2666,0000	100,1963	NaN
2667,0000	100,2339	NaN
2668,0000	100,2715	NaN
2669,0000	100,3091	NaN
2670,0000	100,3467	NaN
2671,0000	100,3843	NaN
2672,0000	100,4218	NaN
2673,0000	100,4594	NaN
2674,0000	100,4970	NaN
2675,0000	100,5346	NaN
2676,0000	100,5722	NaN
2677,0000	100,6098	NaN
2678,0000	100,6473	NaN
2679,0000	100,6849	NaN
2680,0000	100,7225	NaN
2681,0000	100,7601	NaN
2682,0000	100,7977	NaN
2683,0000	100,8353	NaN
2684,0000	100,8728	NaN
2685,0000	100,9104	NaN
2686,0000	100,9480	NaN
2687,0000	100,9856	NaN
2688,0000	101,0232	NaN
2689,0000	101,0607	NaN
2690,0000	101,0983	NaN
2691,0000	101,1359	NaN
2692,0000	101,1735	NaN
2693,0000	101,2111	NaN
2694,0000	101,2487	NaN
2695,0000	101,2862	NaN
2696,0000	101,3238	NaN
2697,0000	101,3614	NaN
2698,0000	101,3990	NaN
2699,0000	101,4366	NaN
2700,0000	101,4742	NaN
2701,0000	101,5117	NaN
2702,0000	101,5493	NaN
2703,0000	101,5869	NaN
2704,0000	101,6245	NaN
2705,0000	101,6621	NaN
2706,0000	101,6997	NaN
2707,0000	101,7372	NaN
2708,0000	101,7748	NaN
2709,0000	101,8124	NaN
2710,0000	101,8500	NaN
2711,0000	101,8876	NaN
2712,0000	101,9252	NaN
2713,0000	101,9627	NaN
2714,0000	102,0003	NaN
2715,0000	102,0379	NaN
2716,0000	102,0755	NaN
2717,0000	102,1131	NaN
2718,0000	102,1507	NaN
2719,0000	102,1882	NaN
2720,0000	102,2258	NaN
2721,0000	102,2634	NaN
2722,0000	102,3010	NaN
2723,0000	102,3386	NaN
2724,0000	102,3762	NaN
2725,0000	102,4137	NaN
2726,0000	102,4513	NaN
2727,0000	102,4889	NaN
2728,0000	102,5265	NaN
2729,0000	102,5641	NaN
2730,0000	102,6017	NaN
2731,0000	102,6392	NaN
2732,0000	102,6768	NaN
2733,0000	102,7144	NaN
2734,0000	102,7520	NaN
2735,0000	102,7896	NaN
2736,0000	102,8272	NaN
2737,0000	102,8647	NaN
2738,0000	102,9023	NaN
2739,0000	102,9399	NaN
2740,0000	102,9775	NaN
2741,0000	103,0151	NaN
2742,0000	103,0526	NaN
2743,0000	103,0902	NaN
2744,0000	103,1278	NaN
2745,0000	103,1654	NaN
2746,0000	103,2030	NaN
2747,0000	103,2406	NaN
2748,0000	103,2781	NaN
2749,0000	103,3157	NaN
2750,0000	103,3533	NaN
2751,0000	103,3909	NaN
2752,0000	103,4285	NaN
2753,0000	103,4661	NaN
2754,0000	103,5036	NaN
2755,0000	103,5412	NaN
2756,0000	103,5788	NaN
2757,0000	103,6164	NaN
2758,0000	103,6540	NaN
2759,0000	103,6916	NaN
2760,0000	103,7291	NaN
2761,0000	103,7667	NaN
2762,0000	103,8043	NaN
2763,0000	103,8419	NaN
2764,0000	103,8795	NaN
2765,0000	103,9171	NaN
2766,0000	103,9546	NaN
2767,0000	103,9922	NaN
2768,0000	104,0298	NaN
2769,0000	104,0674	NaN
2770,0000	104,1050	NaN
2771,0000	104,1426	NaN
2772,0000	104,1801	NaN
2773,0000	104,2177	NaN
2774,0000	104,2553	NaN
2775,0000	104,2929	NaN
2776,0000	104,3305	NaN
2777,0000	104,3681	NaN
2778,0000	104,4056	NaN
2779,0000	104,4432	NaN
2780,0000	104,4808	NaN
2781,0000	104,5184	NaN
2782,0000	104,5560	NaN
2783,0000	104,5936	NaN
2784,0000	104,6311	NaN
2785,0000	104,6687	NaN
2786,0000	104,7063	NaN
2787,0000	104,7439	NaN
2788,0000	104,7815	NaN
2789,0000	104,8191	NaN
2790,0000	104,8566	NaN
2791,0000	104,8942	NaN
2792,0000	104,9318	NaN
2793,0000	104,9694	NaN
2794,0000	105,0070	NaN
2795,0000	105,0445	NaN
2796,0000	105,0821	NaN
2797,0000	105,1197	NaN
2798,0000	105,1573	NaN
2799,0000	105,1949	NaN
2800,0000	105,2325	NaN
2801,0000	105,2700	NaN
2802,0000	105,3076	NaN
2803,0000	105,3452	NaN
2804,0000	105,3828	NaN
2805,0000	105,4204	NaN
2806,0000	105,4580	NaN
2807,0000	105,4955	NaN
2808,0000	105,5331	NaN
2809,0000	105,5707	NaN
2810,0000	105,6083	NaN
2811,0000	105,6459	NaN
2812,0000	105,6835	NaN
2813,0000	105,7210	NaN
2814,0000	105,7586	NaN
2815,0000	105,7962	NaN
2816,0000	105,8338	NaN
2817,0000	105,8714	NaN
2818,0000	105,9090	NaN
2819,0000	105,9465	NaN
2820,0000	105,9841	NaN
2821,0000	106,0217	NaN
2822,0000	106,0593	NaN
2823,0000	106,0969	NaN
2824,0000	106,1345	NaN
2825,0000	106,1720	NaN
2826,0000	106,2096	NaN
2827,0000	106,2472	NaN
2828,0000	106,2848	NaN
2829,0000	106,3224	NaN
2830,0000	106,3600	NaN
2831,0000	106,3975	NaN
2832,0000	106,4351	NaN
2833,0000	106,4727	NaN
2834,0000	106,5103	NaN
2835,0000	106,5479	NaN
2836,0000	106,5855	NaN
2837,0000	106,6230	NaN
2838,0000	106,6606	NaN
2839,0000	106,6982	NaN
2840,0000	106,7358	NaN
2841,0000	106,7734	NaN
2842,0000	106,8110	NaN
2843,0000	106,8485	NaN
2844,0000	106,8861	NaN
2845,0000	106,9237	NaN
2846,0000	106,9613	NaN
2847,0000	106,9989	NaN
2848,0000	107,0364	NaN
2849,0000	107,0740	NaN
2850,0000	107,1116	NaN
2851,0000	107,1492	NaN
2852,0000	107,1868	NaN
2853,0000	107,2244	NaN
2854,0000	107,2619	NaN
2855,0000	107,2995	NaN
2856,0000	107,3371	NaN
2857,0000	107,3747	NaN
2858,0000	107,4123	NaN
2859,0000	107,4499	NaN
2860,0000	107,4874	NaN
2861,0000	107,5250	NaN
2862,0000	107,5626	NaN
2863,0000	107,6002	NaN
2864,0000	107,6378	NaN
2865,0000	107,6754	NaN
2866,0000	107,7129	NaN
2867,0000	107,7505	NaN
2868,0000	107,7881	NaN
2869,0000	107,8257	NaN
2870,0000	107,8633	NaN
2871,0000	107,9009	NaN
2872,0000	107,9384	NaN
2873,0000	107,9760	NaN
2874,0000	108,0136	NaN
2875,0000	108,0512	NaN
2876,0000	108,0888	NaN
2877,0000	108,1264	NaN
2878,0000	108,1639	NaN
2879,0000	108,2015	NaN
2880,0000	108,2391	NaN
2881,0000	108,2767	NaN
2882,0000	108,3143	NaN
2883,0000	108,3519	NaN
2884,0000	108,3894	NaN
2885,0000	108,4270	NaN
2886,0000	108,4646	NaN
2887,0000	108,5022	NaN
2888,0000	108,5398	NaN
2889,0000	108,5774	NaN
2890,0000	108,6149	NaN
2891,0000	108,6525	NaN
2892,0000	108,6901	NaN
2893,0000	108,7277	NaN
2894,0000	108,7653	NaN
2895,0000	108,8029	NaN
2896,0000	108,8404	NaN
2897,0000	108,8780	NaN
2898,0000	108,9156	NaN
2899,0000	108,9532	NaN
2900,0000	108,9908	NaN
2901,0000	109,0283	NaN
2902,0000	109,0659	NaN
2903,0000	109,1035	NaN
2904,0000	109,1411	NaN
2905,0000	109,1787	NaN
2906,0000	109,2163	NaN
2907,0000	109,2538	NaN
2908,0000	109,2914	NaN
2909,0000	109,3290	NaN
2910,0000	109,3666	NaN
2911,0000	109,4042	NaN
2912,0000	109,4418	NaN
2913,0000	109,4793	NaN
2914,0000	109,5169	NaN
2915,0000	109,5545	NaN
2916,0000	109,5921	NaN
2917,0000	109,6297	NaN
2918,0000	109,6673	NaN
2919,0000	109,7048	NaN
2920,0000	109,7424	NaN
2921,0000	109,7800	NaN
2922,0000	109,8176	NaN
2923,0000	109,8552	NaN
2924,0000	109,8928	NaN
2925,0000	109,9303	NaN
2926,0000	109,9679	NaN
2927,0000	110,0055	NaN
2928,0000	110,0431	NaN
2929,0000	110,0807	NaN
2930,0000	110,1183	NaN
2931,0000	110,1558	NaN
2932,0000	110,1934	NaN
2933,0000	110,2310	NaN
2934,0000	110,2686	NaN
2935,0000	110,3062	NaN
2936,0000	110,3438	NaN
2937,0000	110,3813	NaN
2938,0000	110,4189	NaN
2939,0000	110,4565	NaN
2940,0000	110,4941	NaN
2941,0000	110,5317	NaN
2942,0000	110,5693	NaN
2943,0000	110,6068	NaN
2944,0000	110,6444	NaN
2945,0000	110,6820	NaN
2946,0000	110,7196	NaN
2947,0000	110,7572	NaN
2948,0000	110,7948	NaN
2949,0000	110,8323	NaN
2950,0000	110,8699	NaN
2951,0000	110,9075	NaN
2952,0000	110,9451	NaN
2953,0000	110,9827	NaN
2954,0000	111,0202	NaN
2955,0000	111,0578	NaN
2956,0000	111,0954	NaN
2957,0000	111,1330	NaN
2958,0000	111,1706	NaN
2959,0000	111,2082	NaN
2960,0000	111,2457	NaN
2961,0000	111,2833	NaN
2962,0000	111,3209	NaN
2963,0000	111,3585	NaN
2964,0000	111,3961	NaN
2965,0000	111,4337	NaN
2966,0000	111,4712	NaN
2967,0000	111,5088	NaN
2968,0000	111,5464	NaN
2969,0000	111,5840	NaN
2970,0000	111,6216	NaN
2971,0000	111,6592	NaN
2972,0000	111,6967	NaN
2973,0000	111,7343	NaN
2974,0000	111,7719	NaN
2975,0000	111,8095	NaN
2976,0000	111,8471	NaN
2977,0000	111,8847	NaN
2978,0000	111,9222	NaN
2979,0000	111,9598	NaN
2980,0000	111,9974	NaN
2981,0000	112,0350	NaN
2982,0000	112,0726	NaN
2983,0000	112,1102	NaN
2984,0000	112,1477	NaN
2985,0000	112,1853	NaN
2986,0000	112,2229	NaN
2987,0000	112,2605	NaN
2988,0000	112,2981	NaN
2989,0000	112,3357	NaN
2990,0000	112,3732	NaN
2991,0000	112,4108	NaN
2992,0000	112,4484	NaN
2993,0000	112,4860	NaN
2994,0000	112,5236	NaN
2995,0000	112,5612	NaN
2996,0000	112,5987	NaN
2997,0000	112,6363	NaN
2998,0000	112,6739	NaN
2999,0000	112,7115	NaN
3000,0000	112,7491	NaN
3001,0000	112,7867	NaN
3002,0000	112,8242	NaN
3003,0000	112,8618	NaN
3004,0000	112,8994	NaN
3005,0000	112,9370	NaN
3006,0000	112,9746	NaN
3007,0000	113,0121	NaN
3008,0000	113,0497	NaN
3009,0000	113,0873	NaN
3010,0000	113,1249	NaN
3011,0000	113,1625	NaN
3012,0000	113,2001	NaN
3013,0000	113,2376	NaN
3014,0000	113,2752	NaN
3015,0000	113,3128	NaN
3016,0000	113,3504	NaN
3017,0000	113,3880	NaN
3018,0000	113,4256	NaN
3019,0000	113,4631	NaN
3020,0000	113,5007	NaN
3021,0000	113,5383	NaN
3022,0000	113,5759	NaN
3023,0000	113,6135	NaN
3024,0000	113,6511	NaN
3025,0000	113,6886	NaN
3026,0000	113,7262	NaN
3027,0000	113,7638	NaN
3028,0000	113,8014	NaN
3029,0000	113,8390	NaN
3030,0000	113,8766	NaN
3031,0000	113,9141	NaN
3032,0000	113,9517	NaN
3033,0000	113,9893	NaN
3034,0000	114,0269	NaN
3035,0000	114,0645	NaN
3036,0000	114,1021	NaN
3037,0000	114,1396	NaN
3038,0000	114,1772	NaN
3039,0000	114,2148	NaN
3040,0000	114,2524	NaN
3041,0000	114,2900	NaN
3042,0000	114,3276	NaN
3043,0000	114,3651	NaN
3044,0000	114,4027	NaN
3045,0000	114,4403	NaN
3046,0000	114,4779	NaN
3047,0000	114,5155	NaN
3048,0000	114,5531	NaN
3049,0000	114,5906	NaN
3050,0000	114,6282	NaN
3051,0000	114,6658	NaN
3052,0000	114,7034	NaN
3053,0000	114,7410	NaN
3054,0000	114,7786	NaN
3055,0000	114,8161	NaN
3056,0000	114,8537	NaN
3057,0000	114,8913	NaN
3058,0000	114,9289	NaN
3059,0000	114,9665	NaN
3060,0000	115,0040	NaN
3061,0000	115,0416	NaN
3062,0000	115,0792	NaN
3063,0000	115,1168	NaN
3064,0000	115,1544	NaN
3065,0000	115,1920	NaN
3066,0000	115,2295	NaN
3067,0000	115,2671	NaN
3068,0000	115,3047	NaN
3069,0000	115,3423	NaN
3070,0000	115,3799	NaN
3071,0000	115,4175	NaN
3072,0000	115,4550	NaN
3073,0000	115,4926	NaN
3074,0000	115,5302	NaN
3075,0000	115,5678	NaN
3076,0000	115,6054	NaN
3077,0000	115,6430	NaN
3078,0000	115,6805	NaN
3079,0000	115,7181	NaN
3080,0000	115,7557	NaN
3081,0000	115,7933	NaN
3082,0000	115,8309	NaN
3083,0000	115,8685	NaN
